CHILLAN EMBRACE-14 <274> 1 Min. Reported data

 DD MM YYYY  HH MM   H(mV)   D(mV)   Z(mV)  T1(mV)  T2(mV)

 01 10 2023  00 00  -891.401 -727.792 077.182 176.712 325.434
 01 10 2023  00 01  -891.808 -727.599 076.810 176.741 325.112
 01 10 2023  00 02  -891.370 -727.288 076.392 176.745 324.807
 01 10 2023  00 03  -890.939 -727.084 076.100 176.758 324.502
 01 10 2023  00 04  -889.450 -727.027 075.930 176.759 324.156
 01 10 2023  00 05  -889.077 -727.074 075.699 176.730 323.844
 01 10 2023  00 06  -888.475 -727.178 075.470 176.771 323.530
 01 10 2023  00 07  -887.468 -727.387 075.263 176.783 323.206
 01 10 2023  00 08  -886.190 -727.690 075.134 176.785 322.877
 01 10 2023  00 09  -883.459 -728.129 074.959 176.787 322.565
 01 10 2023  00 10  -882.102 -728.943 074.886 176.798 322.189
 01 10 2023  00 11  -880.772 -729.644 074.739 176.799 321.913
 01 10 2023  00 12  -879.561 -730.627 074.523 176.800 321.597
 01 10 2023  00 13  -879.446 -732.298 074.219 176.815 321.262
 01 10 2023  00 14  -876.373 -733.718 073.816 176.818 320.943
 01 10 2023  00 15  -874.503 -735.469 073.572 176.827 320.626
 01 10 2023  00 16  -874.450 -738.370 073.091 176.824 320.309
 01 10 2023  00 17  -873.522 -740.118 072.513 176.830 320.003
 01 10 2023  00 18  -873.439 -742.209 071.770 176.849 319.644
 01 10 2023  00 19  -872.772 -743.211 071.238 176.856 319.317
 01 10 2023  00 20  -872.379 -744.325 070.557 176.859 319.000
 01 10 2023  00 21  -871.943 -745.278 070.053 176.868 318.672
 01 10 2023  00 22  -870.668 -746.927 069.603 176.881 318.391
 01 10 2023  00 23  -857.084 -747.905 069.208 176.882 318.049
 01 10 2023  00 24  -857.293 -749.864 069.570 176.887 317.767
 01 10 2023  00 25  -854.117 -751.110 069.365 176.884 317.473
 01 10 2023  00 26  -851.870 -752.199 069.136 176.896 317.117
 01 10 2023  00 27  -852.410 -753.608 068.969 176.901 316.799
 01 10 2023  00 28  -851.537 -754.859 068.699 176.909 316.499
 01 10 2023  00 29  -849.636 -755.555 068.514 176.925 316.208
 01 10 2023  00 30  -847.196 -755.330 068.343 176.920 315.882
 01 10 2023  00 31  -844.980 -754.506 068.445 176.933 315.527
 01 10 2023  00 32  -843.365 -753.464 068.688 176.939 315.245
 01 10 2023  00 33  -842.491 -752.635 068.932 176.945 314.994
 01 10 2023  00 34  -842.546 -751.822 069.222 176.955 314.642
 01 10 2023  00 35  -843.382 -750.824 069.504 176.921 314.376
 01 10 2023  00 36  -844.186 -749.418 069.855 176.965 314.085
 01 10 2023  00 37  -845.214 -747.899 070.275 176.970 313.790
 01 10 2023  00 38  -846.028 -746.543 070.733 176.984 313.453
 01 10 2023  00 39  -846.995 -745.718 071.113 176.984 313.141
 01 10 2023  00 40  -845.419 -746.107 071.706 176.945 312.859
 01 10 2023  00 41  -846.808 -746.232 072.142 176.996 312.554
 01 10 2023  00 42  -847.448 -745.882 072.483 177.001 312.292
 01 10 2023  00 43  -848.603 -746.941 072.790 177.014 311.954
 01 10 2023  00 44  -849.123 -747.152 073.007 177.027 311.681
 01 10 2023  00 45  -846.474 -747.558 073.174 176.977 311.407
 01 10 2023  00 46  -840.653 -746.368 073.785 177.021 311.080
 01 10 2023  00 47  -838.406 -746.553 074.416 177.035 310.765
 01 10 2023  00 48  -836.874 -748.297 074.938 177.045 310.466
 01 10 2023  00 49  -834.200 -748.161 075.267 177.049 310.153
 01 10 2023  00 50  -834.066 -749.298 075.686 177.022 309.873
 01 10 2023  00 51  -835.480 -751.664 075.879 177.060 309.561
 01 10 2023  00 52  -835.096 -754.109 075.709 177.068 309.284
 01 10 2023  00 53  -832.833 -754.899 075.558 177.070 308.969
 01 10 2023  00 54  -830.062 -755.882 075.589 177.075 308.674
 01 10 2023  00 55  -828.716 -757.394 075.477 177.083 308.339
 01 10 2023  00 56  -826.605 -758.173 075.480 177.091 308.018
 01 10 2023  00 57  -825.169 -759.140 075.437 177.102 307.777
 01 10 2023  00 58  -822.671 -759.578 075.423 177.101 307.488
 01 10 2023  00 59  -819.078 -759.849 075.578 177.119 307.200
 01 10 2023  01 00  -817.264 -760.498 075.792 177.110 306.847
 01 10 2023  01 01  -814.723 -760.547 075.967 177.110 306.583
 01 10 2023  01 02  -813.829 -761.136 076.078 177.131 306.277
 01 10 2023  01 03  -812.843 -761.086 076.285 177.152 305.985
 01 10 2023  01 04  -812.621 -761.198 076.415 177.138 305.655
 01 10 2023  01 05  -813.189 -761.180 076.470 177.086 305.372
 01 10 2023  01 06  -813.341 -761.205 076.537 177.161 305.094
 01 10 2023  01 07  -813.772 -761.052 076.604 177.164 304.797
 01 10 2023  01 08  -813.797 -760.843 076.723 177.175 304.495
 01 10 2023  01 09  -814.104 -760.189 076.879 177.179 304.177
 01 10 2023  01 10  -814.091 -759.447 077.053 177.166 303.887
 01 10 2023  01 11  -813.936 -758.847 077.302 177.175 303.605
 01 10 2023  01 12  -814.327 -758.418 077.535 177.202 303.327
 01 10 2023  01 13  -815.123 -757.894 077.728 177.205 303.020
 01 10 2023  01 14  -815.623 -757.240 077.918 177.216 302.696
 01 10 2023  01 15  -816.063 -756.355 078.140 177.226 302.431
 01 10 2023  01 16  -817.170 -755.907 078.439 177.223 302.102
 01 10 2023  01 17  -818.098 -755.707 078.651 177.239 301.827
 01 10 2023  01 18  -819.027 -755.672 078.826 177.245 301.515
 01 10 2023  01 19  -819.956 -755.522 079.004 177.253 301.227
 01 10 2023  01 20  -821.267 -755.555 079.060 177.233 300.912
 01 10 2023  01 21  -822.389 -755.534 079.104 177.262 300.641
 01 10 2023  01 22  -822.817 -755.271 079.126 177.283 300.323
 01 10 2023  01 23  -823.156 -754.980 079.236 177.291 300.030
 01 10 2023  01 24  -823.332 -754.927 079.343 177.294 299.729
 01 10 2023  01 25  -823.182 -755.238 079.389 177.272 299.420
 01 10 2023  01 26  -822.766 -755.455 079.411 177.293 299.114
 01 10 2023  01 27  -821.955 -755.631 079.437 177.306 298.823
 01 10 2023  01 28  -820.913 -755.350 079.486 177.307 298.546
 01 10 2023  01 29  -819.747 -754.991 079.491 177.314 298.226
 01 10 2023  01 30  -818.433 -754.770 079.569 177.294 297.944
 01 10 2023  01 31  -817.210 -754.572 079.689 177.337 297.644
 01 10 2023  01 32  -816.213 -754.255 079.774 177.340 297.318
 01 10 2023  01 33  -815.496 -753.912 079.905 177.344 297.023
 01 10 2023  01 34  -815.078 -753.713 080.020 177.352 296.722
 01 10 2023  01 35  -814.526 -753.456 080.126 177.362 296.443
 01 10 2023  01 36  -813.992 -753.214 080.232 177.367 296.126
 01 10 2023  01 37  -813.828 -753.121 080.292 177.376 295.797
 01 10 2023  01 38  -813.410 -753.100 080.319 177.375 295.492
 01 10 2023  01 39  -812.647 -753.038 080.339 177.396 295.185
 01 10 2023  01 40  -812.031 -752.957 080.408 177.381 294.856
 01 10 2023  01 41  -811.760 -752.927 080.478 177.412 294.569
 01 10 2023  01 42  -811.666 -752.863 080.504 177.414 294.251
 01 10 2023  01 43  -812.278 -752.860 080.515 177.427 293.991
 01 10 2023  01 44  -812.671 -752.745 080.512 177.430 293.650
 01 10 2023  01 45  -812.720 -752.513 080.526 177.428 293.397
 01 10 2023  01 46  -811.972 -752.155 080.565 177.447 293.083
 01 10 2023  01 47  -811.566 -751.947 080.626 177.457 292.753
 01 10 2023  01 48  -810.840 -751.660 080.663 177.462 292.468
 01 10 2023  01 49  -810.070 -751.528 080.767 177.465 292.157
 01 10 2023  01 50  -809.337 -751.302 080.806 177.424 291.854
 01 10 2023  01 51  -808.958 -751.104 080.946 177.488 291.544
 01 10 2023  01 52  -809.299 -751.212 080.984 177.498 291.232
 01 10 2023  01 53  -810.008 -751.341 080.861 177.499 290.951
 01 10 2023  01 54  -810.543 -751.427 080.834 177.509 290.619
 01 10 2023  01 55  -810.854 -751.531 080.790 177.492 290.300
 01 10 2023  01 56  -810.740 -751.379 080.797 177.515 290.015
 01 10 2023  01 57  -810.817 -751.201 080.845 177.529 289.741
 01 10 2023  01 58  -811.074 -751.094 080.900 177.542 289.414
 01 10 2023  01 59  -811.159 -751.039 080.966 177.546 289.119
 01 10 2023  02 00  -811.199 -751.148 081.017 177.545 288.816
 01 10 2023  02 01  -811.148 -751.436 081.070 177.557 288.504
 01 10 2023  02 02  -810.640 -751.575 081.127 177.565 288.246
 01 10 2023  02 03  -810.136 -751.858 081.227 177.576 287.945
 01 10 2023  02 04  -809.370 -752.016 081.288 177.581 287.636
 01 10 2023  02 05  -808.430 -752.237 081.311 177.572 287.345
 01 10 2023  02 06  -807.406 -752.450 081.362 177.603 287.034
 01 10 2023  02 07  -806.469 -752.596 081.378 177.604 286.748
 01 10 2023  02 08  -805.337 -752.563 081.428 177.626 286.446
 01 10 2023  02 09  -804.330 -752.468 081.462 177.625 286.127
 01 10 2023  02 10  -803.108 -752.469 081.496 177.635 285.821
 01 10 2023  02 11  -802.204 -752.725 081.518 177.643 285.561
 01 10 2023  02 12  -801.312 -752.846 081.487 177.651 285.277
 01 10 2023  02 13  -800.534 -752.851 081.500 177.651 284.980
 01 10 2023  02 14  -799.826 -752.898 081.520 177.662 284.655
 01 10 2023  02 15  -799.276 -752.859 081.518 177.664 284.378
 01 10 2023  02 16  -798.752 -752.851 081.647 177.675 284.060
 01 10 2023  02 17  -798.520 -752.901 081.716 177.686 283.807
 01 10 2023  02 18  -798.088 -752.867 081.717 177.691 283.508
 01 10 2023  02 19  -797.271 -752.771 081.701 177.697 283.192
 01 10 2023  02 20  -797.017 -752.835 081.723 177.664 282.864
 01 10 2023  02 21  -796.533 -752.616 081.771 177.712 282.612
 01 10 2023  02 22  -796.548 -752.501 081.833 177.723 282.353
 01 10 2023  02 23  -796.982 -752.518 081.842 177.726 282.028
 01 10 2023  02 24  -797.111 -752.491 081.879 177.734 281.709
 01 10 2023  02 25  -797.059 -752.393 081.828 177.736 281.457
 01 10 2023  02 26  -797.253 -752.389 081.803 177.738 281.163
 01 10 2023  02 27  -797.587 -752.460 081.770 177.755 280.850
 01 10 2023  02 28  -798.044 -752.694 081.719 177.752 280.590
 01 10 2023  02 29  -798.254 -752.906 081.590 177.763 280.299
 01 10 2023  02 30  -798.557 -753.100 081.458 177.722 279.967
 01 10 2023  02 31  -798.804 -753.143 081.369 177.777 279.711
 01 10 2023  02 32  -798.571 -753.093 081.319 177.774 279.451
 01 10 2023  02 33  -798.084 -753.128 081.268 177.781 279.121
 01 10 2023  02 34  -797.380 -753.071 081.229 177.784 278.819
 01 10 2023  02 35  -796.841 -752.947 081.094 177.766 278.523
 01 10 2023  02 36  -796.302 -752.858 081.068 177.792 278.232
 01 10 2023  02 37  -795.906 -752.747 080.963 177.799 277.982
 01 10 2023  02 38  -795.531 -752.825 080.974 177.806 277.683
 01 10 2023  02 39  -795.229 -752.763 080.931 177.820 277.409
 01 10 2023  02 40  -795.050 -752.747 080.868 177.763 277.091
 01 10 2023  02 41  -795.124 -752.764 080.815 177.814 276.825
 01 10 2023  02 42  -795.368 -752.691 080.729 177.822 276.609
 01 10 2023  02 43  -795.463 -752.762 080.628 177.832 276.296
 01 10 2023  02 44  -795.423 -752.668 080.598 177.837 275.987
 01 10 2023  02 45  -795.376 -752.723 080.456 177.836 275.682
 01 10 2023  02 46  -795.499 -752.849 080.386 177.856 275.368
 01 10 2023  02 47  -795.684 -753.086 080.298 177.855 275.139
 01 10 2023  02 48  -795.695 -753.196 080.173 177.866 274.869
 01 10 2023  02 49  -795.791 -753.434 080.084 177.876 274.621
 01 10 2023  02 50  -796.075 -753.785 079.959 177.857 274.350
 01 10 2023  02 51  -796.520 -753.937 079.903 177.887 274.027
 01 10 2023  02 52  -797.055 -754.131 079.749 177.897 273.740
 01 10 2023  02 53  -797.407 -754.293 079.631 177.915 273.495
 01 10 2023  02 54  -797.653 -754.296 079.502 177.906 273.236
 01 10 2023  02 55  -797.817 -754.408 079.317 177.895 272.939
 01 10 2023  02 56  -798.592 -754.755 079.262 177.923 272.677
 01 10 2023  02 57  -799.282 -755.051 079.092 177.931 272.416
 01 10 2023  02 58  -799.629 -755.055 078.878 177.931 272.105
 01 10 2023  02 59  -801.194 -755.348 078.796 177.939 271.818
 01 10 2023  03 00  -801.988 -755.374 078.534 177.930 271.589
 01 10 2023  03 01  -802.813 -755.747 078.375 177.954 271.300
 01 10 2023  03 02  -802.726 -756.038 078.197 177.951 271.083
 01 10 2023  03 03  -802.677 -756.628 077.994 177.962 270.775
 01 10 2023  03 04  -802.546 -757.601 077.827 177.977 270.505
 01 10 2023  03 05  -801.489 -758.138 077.626 177.972 270.242
 01 10 2023  03 06  -800.706 -758.714 077.607 177.986 269.952
 01 10 2023  03 07  -799.956 -759.594 077.384 178.002 269.647
 01 10 2023  03 08  -799.040 -760.157 077.253 178.012 269.462
 01 10 2023  03 09  -797.994 -760.520 077.112 178.010 269.159
 01 10 2023  03 10  -797.453 -760.743 077.009 177.981 268.891
 01 10 2023  03 11  -797.069 -760.879 076.927 178.024 268.682
 01 10 2023  03 12  -796.297 -760.987 076.870 178.038 268.416
 01 10 2023  03 13  -795.668 -761.018 076.878 178.047 268.122
 01 10 2023  03 14  -794.679 -761.054 076.841 178.043 267.874
 01 10 2023  03 15  -794.415 -761.060 076.879 178.012 267.624
 01 10 2023  03 16  -793.101 -761.257 076.795 178.058 267.395
 01 10 2023  03 17  -792.557 -761.286 076.932 178.066 267.107
 01 10 2023  03 18  -791.959 -761.298 076.881 178.080 266.851
 01 10 2023  03 19  -791.905 -761.482 076.938 178.072 266.593
 01 10 2023  03 20  -791.776 -761.309 076.950 178.051 266.359
 01 10 2023  03 21  -791.756 -761.476 077.000 178.101 266.104
 01 10 2023  03 22  -791.904 -761.532 077.041 178.104 265.843
 01 10 2023  03 23  -791.465 -761.280 076.964 178.107 265.564
 01 10 2023  03 24  -791.286 -761.059 076.985 178.116 265.353
 01 10 2023  03 25  -790.240 -760.783 077.053 178.119 265.097
 01 10 2023  03 26  -789.556 -760.582 077.262 178.126 264.851
 01 10 2023  03 27  -788.121 -760.162 077.379 178.139 264.640
 01 10 2023  03 28  -787.412 -760.074 077.513 178.138 264.347
 01 10 2023  03 29  -787.359 -759.976 077.716 178.143 264.106
 01 10 2023  03 30  -787.617 -760.060 077.756 178.145 263.888
 01 10 2023  03 31  -787.875 -760.124 077.861 178.162 263.646
 01 10 2023  03 32  -788.120 -760.183 077.919 178.163 263.358
 01 10 2023  03 33  -787.477 -759.961 077.988 178.180 263.161
 01 10 2023  03 34  -786.977 -759.871 078.085 178.181 262.905
 01 10 2023  03 35  -786.829 -759.830 078.162 178.161 262.684
 01 10 2023  03 36  -786.557 -759.806 078.254 178.194 262.419
 01 10 2023  03 37  -785.904 -759.315 078.407 178.202 262.138
 01 10 2023  03 38  -784.964 -758.878 078.559 178.206 261.924
 01 10 2023  03 39  -784.269 -758.723 078.699 178.216 261.711
 01 10 2023  03 40  -783.283 -758.165 078.863 178.226 261.442
 01 10 2023  03 41  -782.879 -757.960 079.064 178.226 261.221
 01 10 2023  03 42  -782.255 -757.789 079.224 178.238 260.984
 01 10 2023  03 43  -782.230 -757.848 079.263 178.243 260.741
 01 10 2023  03 44  -781.732 -757.533 079.324 178.252 260.480
 01 10 2023  03 45  -781.505 -757.313 079.478 178.264 260.265
 01 10 2023  03 46  -781.404 -757.208 079.585 178.251 260.043
 01 10 2023  03 47  -781.849 -757.398 079.659 178.268 259.810
 01 10 2023  03 48  -782.564 -757.481 079.652 178.267 259.537
 01 10 2023  03 49  -783.159 -757.520 079.616 178.283 259.330
 01 10 2023  03 50  -783.567 -757.486 079.579 178.250 259.058
 01 10 2023  03 51  -783.389 -757.342 079.567 178.288 258.830
 01 10 2023  03 52  -782.466 -757.357 079.524 178.311 258.621
 01 10 2023  03 53  -781.677 -757.319 079.743 178.324 258.369
 01 10 2023  03 54  -781.139 -757.374 079.813 178.308 258.145
 01 10 2023  03 55  -779.694 -757.401 079.872 178.277 257.915
 01 10 2023  03 56  -778.461 -757.216 080.065 178.324 257.677
 01 10 2023  03 57  -777.549 -757.159 080.197 178.334 257.425
 01 10 2023  03 58  -776.483 -757.061 080.388 178.345 257.215
 01 10 2023  03 59  -775.945 -757.082 080.531 178.354 257.022
 01 10 2023  04 00  -775.742 -757.273 080.589 178.334 256.778
 01 10 2023  04 01  -775.122 -757.496 080.609 178.374 256.505
 01 10 2023  04 02  -774.630 -757.854 080.641 178.378 256.305
 01 10 2023  04 03  -774.179 -758.147 080.728 178.386 256.034
 01 10 2023  04 04  -773.862 -758.380 080.621 178.384 255.791
 01 10 2023  04 05  -773.464 -758.522 080.619 178.368 255.578
 01 10 2023  04 06  -772.987 -758.686 080.603 178.402 255.365
 01 10 2023  04 07  -772.773 -759.020 080.617 178.411 255.123
 01 10 2023  04 08  -772.420 -759.067 080.535 178.417 254.870
 01 10 2023  04 09  -772.101 -759.103 080.663 178.423 254.672
 01 10 2023  04 10  -771.856 -759.305 080.661 178.415 254.455
 01 10 2023  04 11  -771.774 -759.401 080.692 178.425 254.192
 01 10 2023  04 12  -771.764 -759.515 080.650 178.448 253.948
 01 10 2023  04 13  -771.655 -759.631 080.652 178.442 253.767
 01 10 2023  04 14  -771.491 -759.814 080.571 178.463 253.553
 01 10 2023  04 15  -771.131 -759.788 080.544 178.454 253.300
 01 10 2023  04 16  -769.976 -758.962 080.724 178.468 253.084
 01 10 2023  04 17  -770.862 -759.290 080.869 178.471 252.853
 01 10 2023  04 18  -771.611 -759.751 080.809 178.488 252.660
 01 10 2023  04 19  -771.942 -760.234 080.710 178.484 252.437
 01 10 2023  04 20  -773.257 -760.822 080.590 178.484 252.217
 01 10 2023  04 21  -773.983 -761.126 080.390 178.502 251.957
 01 10 2023  04 22  -774.717 -761.383 080.190 178.504 251.741
 01 10 2023  04 23  -775.671 -761.568 080.078 178.510 251.522
 01 10 2023  04 24  -776.315 -761.883 079.903 178.523 251.310
 01 10 2023  04 25  -776.183 -761.791 079.749 178.530 251.108
 01 10 2023  04 26  -776.053 -761.244 079.695 178.532 250.867
 01 10 2023  04 27  -775.830 -760.781 079.705 178.537 250.625
 01 10 2023  04 28  -775.883 -760.593 079.737 178.540 250.427
 01 10 2023  04 29  -775.810 -760.342 079.724 178.549 250.229
 01 10 2023  04 30  -776.118 -760.140 079.685 178.457 249.994
 01 10 2023  04 31  -776.375 -760.179 079.675 178.564 249.747
 01 10 2023  04 32  -776.571 -760.301 079.638 178.572 249.528
 01 10 2023  04 33  -777.274 -760.599 079.613 178.574 249.329
 01 10 2023  04 34  -777.987 -760.863 079.567 178.577 249.118
 01 10 2023  04 35  -777.859 -760.818 079.461 178.565 248.900
 01 10 2023  04 36  -777.884 -760.758 079.468 178.598 248.690
 01 10 2023  04 37  -777.419 -760.397 079.460 178.595 248.470
 01 10 2023  04 38  -777.295 -760.029 079.479 178.606 248.225
 01 10 2023  04 39  -776.884 -759.811 079.556 178.616 248.026
 01 10 2023  04 40  -776.680 -759.827 079.553 178.570 247.850
 01 10 2023  04 41  -776.508 -759.929 079.573 178.618 247.598
 01 10 2023  04 42  -776.449 -759.950 079.523 178.639 247.349
 01 10 2023  04 43  -776.070 -759.834 079.468 178.641 247.138
 01 10 2023  04 44  -775.486 -759.773 079.396 178.649 246.913
 01 10 2023  04 45  -775.068 -759.621 079.412 178.609 246.714
 01 10 2023  04 46  -774.062 -759.284 079.422 178.648 246.483
 01 10 2023  04 47  -773.757 -759.456 079.440 178.652 246.283
 01 10 2023  04 48  -773.330 -759.588 079.425 178.660 246.109
 01 10 2023  04 49  -772.968 -759.561 079.381 178.672 245.915
 01 10 2023  04 50  -772.746 -759.373 079.358 178.687 245.684
 01 10 2023  04 51  -772.530 -759.190 079.358 178.685 245.475
 01 10 2023  04 52  -772.435 -758.962 079.378 178.690 245.263
 01 10 2023  04 53  -772.332 -759.022 079.312 178.693 245.059
 01 10 2023  04 54  -772.120 -759.123 079.234 178.697 244.880
 01 10 2023  04 55  -771.752 -759.268 079.165 178.691 244.635
 01 10 2023  04 56  -771.619 -759.165 079.162 178.719 244.409
 01 10 2023  04 57  -771.630 -759.051 079.151 178.718 244.226
 01 10 2023  04 58  -771.838 -759.155 079.139 178.734 244.021
 01 10 2023  04 59  -771.675 -759.332 079.154 178.731 243.766
 01 10 2023  05 00  -771.345 -759.251 079.117 178.724 243.564
 01 10 2023  05 01  -771.052 -758.823 079.165 178.743 243.397
 01 10 2023  05 02  -771.158 -758.846 079.217 178.742 243.175
 01 10 2023  05 03  -771.737 -759.141 079.225 178.760 242.943
 01 10 2023  05 04  -772.475 -759.440 079.167 178.754 242.731
 01 10 2023  05 05  -773.325 -759.673 079.084 178.741 242.515
 01 10 2023  05 06  -773.855 -759.379 079.034 178.759 242.352
 01 10 2023  05 07  -774.630 -759.231 078.977 178.778 242.191
 01 10 2023  05 08  -775.188 -759.241 078.928 178.784 241.964
 01 10 2023  05 09  -775.386 -759.254 078.832 178.786 241.702
 01 10 2023  05 10  -775.486 -759.202 078.796 178.746 241.505
 01 10 2023  05 11  -775.818 -759.458 078.779 178.805 241.300
 01 10 2023  05 12  -776.430 -760.083 078.671 178.812 241.144
 01 10 2023  05 13  -776.963 -760.810 078.477 178.815 240.926
 01 10 2023  05 14  -777.430 -761.261 078.264 178.817 240.727
 01 10 2023  05 15  -777.731 -761.722 078.101 178.784 240.506
 01 10 2023  05 16  -777.824 -761.729 077.899 178.825 240.312
 01 10 2023  05 17  -778.370 -761.500 077.757 178.839 240.134
 01 10 2023  05 18  -779.128 -761.682 077.651 178.839 239.926
 01 10 2023  05 19  -779.818 -762.373 077.547 178.841 239.723
 01 10 2023  05 20  -780.535 -763.096 077.335 178.779 239.567
 01 10 2023  05 21  -781.150 -763.486 077.129 178.852 239.351
 01 10 2023  05 22  -781.228 -763.800 076.923 178.862 239.112
 01 10 2023  05 23  -781.100 -763.903 076.826 178.870 238.941
 01 10 2023  05 24  -780.239 -763.559 076.768 178.875 238.719
 01 10 2023  05 25  -779.669 -763.438 076.721 178.828 238.525
 01 10 2023  05 26  -779.032 -763.295 076.744 178.882 238.342
 01 10 2023  05 27  -778.458 -763.117 076.785 178.887 238.158
 01 10 2023  05 28  -778.186 -763.260 076.828 178.898 237.981
 01 10 2023  05 29  -777.951 -763.276 076.874 178.904 237.828
 01 10 2023  05 30  -777.430 -762.985 076.892 178.902 237.628
 01 10 2023  05 31  -776.766 -762.740 076.971 178.912 237.413
 01 10 2023  05 32  -776.051 -762.547 077.103 178.925 237.211
 01 10 2023  05 33  -775.749 -762.471 077.233 178.928 237.026
 01 10 2023  05 34  -775.501 -762.253 077.273 178.927 236.869
 01 10 2023  05 35  -775.537 -761.962 077.278 178.889 236.659
 01 10 2023  05 36  -776.104 -761.776 077.313 178.939 236.436
 01 10 2023  05 37  -776.746 -761.792 077.388 178.935 236.224
 01 10 2023  05 38  -777.507 -762.195 077.343 178.957 236.061
 01 10 2023  05 39  -778.536 -762.737 077.180 178.956 235.883
 01 10 2023  05 40  -779.151 -763.086 077.063 178.899 235.699
 01 10 2023  05 41  -778.905 -763.135 076.967 178.953 235.505
 01 10 2023  05 42  -778.714 -763.561 076.920 178.967 235.315
 01 10 2023  05 43  -778.740 -763.920 076.845 178.982 235.134
 01 10 2023  05 44  -778.748 -764.059 076.755 178.982 234.983
 01 10 2023  05 45  -778.674 -764.217 076.683 178.983 234.780
 01 10 2023  05 46  -778.541 -763.962 076.638 178.981 234.587
 01 10 2023  05 47  -777.717 -763.862 076.639 179.001 234.428
 01 10 2023  05 48  -776.797 -763.825 076.660 178.996 234.282
 01 10 2023  05 49  -775.762 -763.692 076.690 179.009 234.067
 01 10 2023  05 50  -774.752 -763.438 076.743 179.008 233.898
 01 10 2023  05 51  -773.671 -763.356 076.817 179.006 233.729
 01 10 2023  05 52  -773.473 -763.426 076.901 179.015 233.550
 01 10 2023  05 53  -773.381 -763.537 076.882 179.025 233.370
 01 10 2023  05 54  -773.378 -763.645 076.907 179.032 233.215
 01 10 2023  05 55  -773.674 -763.789 076.882 178.976 233.022
 01 10 2023  05 56  -773.992 -763.878 076.821 179.047 232.866
 01 10 2023  05 57  -774.220 -764.117 076.737 179.052 232.732
 01 10 2023  05 58  -774.434 -764.369 076.683 179.048 232.561
 01 10 2023  05 59  -774.322 -764.614 076.546 179.041 232.410
 01 10 2023  06 00  -774.495 -764.908 076.364 179.046 232.211
 01 10 2023  06 01  -775.176 -765.095 076.229 179.058 232.051
 01 10 2023  06 02  -775.509 -765.088 076.128 179.072 231.947
 01 10 2023  06 03  -775.853 -765.187 076.010 179.084 231.779
 01 10 2023  06 04  -776.134 -765.298 075.903 179.076 231.627
 01 10 2023  06 05  -776.473 -765.544 075.743 179.025 231.486
 01 10 2023  06 06  -776.481 -765.676 075.669 179.076 231.357
 01 10 2023  06 07  -776.280 -765.700 075.566 179.089 231.210
 01 10 2023  06 08  -776.032 -765.788 075.539 179.082 231.073
 01 10 2023  06 09  -775.783 -765.984 075.447 179.099 230.933
 01 10 2023  06 10  -775.651 -766.133 075.374 178.996 230.831
 01 10 2023  06 11  -775.627 -766.342 075.360 179.118 230.652
 01 10 2023  06 12  -775.873 -766.660 075.275 179.119 230.503
 01 10 2023  06 13  -776.082 -766.821 075.155 179.122 230.343
 01 10 2023  06 14  -775.979 -767.032 075.042 179.126 230.263
 01 10 2023  06 15  -775.838 -767.304 074.968 179.125 230.131
 01 10 2023  06 16  -775.841 -767.778 074.867 179.133 230.005
 01 10 2023  06 17  -775.859 -768.378 074.700 179.134 229.867
 01 10 2023  06 18  -775.503 -768.962 074.523 179.143 229.755
 01 10 2023  06 19  -775.110 -769.294 074.394 179.149 229.623
 01 10 2023  06 20  -774.786 -769.507 074.271 179.134 229.509
 01 10 2023  06 21  -774.596 -769.511 074.221 179.154 229.382
 01 10 2023  06 22  -774.805 -769.539 074.154 179.168 229.242
 01 10 2023  06 23  -774.959 -769.592 074.097 179.169 229.119
 01 10 2023  06 24  -774.858 -769.689 074.006 179.173 229.031
 01 10 2023  06 25  -774.941 -769.813 073.884 179.147 228.907
 01 10 2023  06 26  -775.036 -769.751 073.889 179.174 228.784
 01 10 2023  06 27  -775.134 -769.804 073.797 179.183 228.684
 01 10 2023  06 28  -775.178 -769.682 073.731 179.185 228.540
 01 10 2023  06 29  -775.042 -769.477 073.672 179.193 228.442
 01 10 2023  06 30  -775.082 -769.430 073.637 179.188 228.315
 01 10 2023  06 31  -775.283 -769.474 073.679 179.201 228.198
 01 10 2023  06 32  -775.703 -769.587 073.641 179.198 228.077
 01 10 2023  06 33  -776.326 -769.843 073.630 179.217 228.013
 01 10 2023  06 34  -776.863 -769.994 073.500 179.226 227.900
 01 10 2023  06 35  -777.046 -770.001 073.408 179.212 227.750
 01 10 2023  06 36  -777.134 -769.910 073.349 179.224 227.636
 01 10 2023  06 37  -777.326 -770.177 073.304 179.238 227.592
 01 10 2023  06 38  -777.739 -770.415 073.241 179.240 227.457
 01 10 2023  06 39  -777.725 -770.240 073.146 179.241 227.394
 01 10 2023  06 40  -778.096 -770.307 073.031 179.206 227.278
 01 10 2023  06 41  -778.546 -770.412 072.969 179.251 227.139
 01 10 2023  06 42  -778.892 -770.305 072.923 179.259 227.059
 01 10 2023  06 43  -779.125 -770.197 072.875 179.264 226.996
 01 10 2023  06 44  -779.008 -770.192 072.754 179.272 226.876
 01 10 2023  06 45  -779.022 -770.354 072.717 179.279 226.801
 01 10 2023  06 46  -779.100 -770.327 072.713 179.272 226.707
 01 10 2023  06 47  -779.222 -770.404 072.736 179.276 226.616
 01 10 2023  06 48  -779.779 -770.696 072.737 179.292 226.483
 01 10 2023  06 49  -780.262 -771.086 072.660 179.295 226.447
 01 10 2023  06 50  -780.419 -771.488 072.595 179.242 226.338
 01 10 2023  06 51  -779.969 -771.856 072.521 179.294 226.227
 01 10 2023  06 52  -779.483 -772.251 072.400 179.311 226.206
 01 10 2023  06 53  -779.401 -772.518 072.291 179.311 226.122
 01 10 2023  06 54  -779.513 -772.449 072.163 179.318 226.035
 01 10 2023  06 55  -779.408 -772.241 072.092 179.299 225.903
 01 10 2023  06 56  -779.740 -772.183 072.078 179.317 225.820
 01 10 2023  06 57  -780.318 -772.210 072.020 179.332 225.755
 01 10 2023  06 58  -780.372 -772.162 071.964 179.332 225.682
 01 10 2023  06 59  -780.168 -772.039 071.972 179.330 225.589
 01 10 2023  07 00  -780.475 -772.391 071.928 179.346 225.500
 01 10 2023  07 01  -780.198 -772.039 071.848 179.346 225.425
 01 10 2023  07 02  -780.047 -771.651 071.953 179.355 225.362
 01 10 2023  07 03  -780.549 -771.973 071.934 179.354 225.301
 01 10 2023  07 04  -780.551 -772.305 071.875 179.363 225.252
 01 10 2023  07 05  -780.134 -772.711 071.795 179.364 225.177
 01 10 2023  07 06  -779.585 -772.928 071.775 179.370 225.144
 01 10 2023  07 07  -778.510 -772.866 071.736 179.367 225.036
 01 10 2023  07 08  -778.109 -772.853 071.783 179.381 224.982
 01 10 2023  07 09  -777.733 -772.727 071.816 179.394 224.931
 01 10 2023  07 10  -777.607 -772.591 071.874 179.384 224.897
 01 10 2023  07 11  -777.636 -772.570 071.954 179.391 224.802
 01 10 2023  07 12  -776.560 -772.324 072.026 179.395 224.733
 01 10 2023  07 13  -775.976 -772.649 072.179 179.410 224.692
 01 10 2023  07 14  -775.834 -773.465 072.278 179.405 224.622
 01 10 2023  07 15  -774.770 -774.010 072.318 179.403 224.571
 01 10 2023  07 16  -774.465 -774.427 072.350 179.413 224.507
 01 10 2023  07 17  -774.747 -774.964 072.379 179.425 224.492
 01 10 2023  07 18  -775.087 -775.439 072.311 179.433 224.449
 01 10 2023  07 19  -775.257 -775.805 072.281 179.428 224.339
 01 10 2023  07 20  -775.577 -776.265 072.294 179.430 224.314
 01 10 2023  07 21  -775.617 -776.838 072.230 179.438 224.271
 01 10 2023  07 22  -775.515 -777.116 072.265 179.442 224.212
 01 10 2023  07 23  -775.422 -777.336 072.348 179.442 224.188
 01 10 2023  07 24  -775.460 -777.796 072.422 179.451 224.110
 01 10 2023  07 25  -775.566 -778.226 072.510 179.459 224.049
 01 10 2023  07 26  -775.230 -778.297 072.593 179.467 224.023
 01 10 2023  07 27  -774.202 -778.085 072.762 179.472 223.946
 01 10 2023  07 28  -773.225 -777.923 073.034 179.476 223.961
 01 10 2023  07 29  -773.276 -777.971 073.272 179.477 223.880
 01 10 2023  07 30  -773.156 -778.120 073.442 179.483 223.845
 01 10 2023  07 31  -772.763 -778.065 073.653 179.490 223.782
 01 10 2023  07 32  -773.347 -778.529 073.867 179.492 223.727
 01 10 2023  07 33  -773.496 -778.555 073.936 179.496 223.670
 01 10 2023  07 34  -773.938 -778.376 074.181 179.503 223.633
 01 10 2023  07 35  -774.440 -778.505 074.341 179.515 223.601
 01 10 2023  07 36  -774.118 -778.130 074.489 179.510 223.575
 01 10 2023  07 37  -774.517 -778.237 074.727 179.514 223.517
 01 10 2023  07 38  -774.464 -777.915 074.999 179.518 223.456
 01 10 2023  07 39  -774.547 -777.577 075.227 179.516 223.390
 01 10 2023  07 40  -774.457 -777.208 075.537 179.531 223.378
 01 10 2023  07 41  -774.037 -776.519 075.871 179.542 223.331
 01 10 2023  07 42  -774.219 -776.072 076.192 179.541 223.325
 01 10 2023  07 43  -774.404 -775.604 076.478 179.544 223.269
 01 10 2023  07 44  -774.744 -775.268 076.782 179.545 223.225
 01 10 2023  07 45  -775.007 -775.054 077.029 179.546 223.183
 01 10 2023  07 46  -775.439 -774.987 077.276 179.559 223.110
 01 10 2023  07 47  -776.130 -774.855 077.503 179.550 223.082
 01 10 2023  07 48  -776.984 -774.656 077.669 179.565 223.068
 01 10 2023  07 49  -777.531 -774.267 077.843 179.567 223.019
 01 10 2023  07 50  -777.907 -773.882 078.078 179.575 222.951
 01 10 2023  07 51  -777.948 -773.425 078.303 179.580 222.915
 01 10 2023  07 52  -777.649 -772.620 078.594 179.578 222.835
 01 10 2023  07 53  -777.426 -771.901 078.862 179.594 222.822
 01 10 2023  07 54  -777.027 -771.402 079.166 179.604 222.770
 01 10 2023  07 55  -776.340 -770.954 079.456 179.601 222.707
 01 10 2023  07 56  -776.124 -770.784 079.760 179.609 222.654
 01 10 2023  07 57  -775.687 -770.553 079.975 179.612 222.622
 01 10 2023  07 58  -775.144 -770.186 080.239 179.613 222.592
 01 10 2023  07 59  -774.701 -769.846 080.490 179.619 222.542
 01 10 2023  08 00  -774.191 -769.421 080.731 179.601 222.495
 01 10 2023  08 01  -773.629 -768.966 081.035 179.619 222.466
 01 10 2023  08 02  -773.300 -768.733 081.279 179.624 222.430
 01 10 2023  08 03  -772.746 -768.311 081.515 179.641 222.387
 01 10 2023  08 04  -772.213 -767.970 081.781 179.643 222.340
 01 10 2023  08 05  -771.805 -767.642 082.044 179.593 222.351
 01 10 2023  08 06  -771.440 -767.560 082.205 179.642 222.316
 01 10 2023  08 07  -770.916 -767.555 082.449 179.645 222.265
 01 10 2023  08 08  -770.380 -767.263 082.606 179.655 222.232
 01 10 2023  08 09  -770.260 -767.061 082.755 179.659 222.201
 01 10 2023  08 10  -770.173 -767.017 082.863 179.625 222.158
 01 10 2023  08 11  -770.070 -767.092 082.987 179.664 222.147
 01 10 2023  08 12  -769.832 -767.131 083.106 179.681 222.099
 01 10 2023  08 13  -769.785 -767.143 083.182 179.693 222.071
 01 10 2023  08 14  -769.492 -767.037 083.245 179.681 222.031
 01 10 2023  08 15  -769.299 -767.154 083.317 179.598 222.002
 01 10 2023  08 16  -768.960 -767.122 083.426 179.686 221.938
 01 10 2023  08 17  -768.308 -766.940 083.493 179.698 221.906
 01 10 2023  08 18  -767.562 -766.750 083.621 179.698 221.874
 01 10 2023  08 19  -767.031 -766.543 083.720 179.708 221.842
 01 10 2023  08 20  -766.643 -766.492 083.786 179.692 221.756
 01 10 2023  08 21  -766.323 -766.507 083.937 179.708 221.725
 01 10 2023  08 22  -765.869 -766.313 084.031 179.718 221.711
 01 10 2023  08 23  -765.576 -766.021 084.094 179.720 221.706
 01 10 2023  08 24  -765.458 -765.775 084.196 179.726 221.692
 01 10 2023  08 25  -765.700 -765.855 084.264 179.730 221.655
 01 10 2023  08 26  -765.850 -765.967 084.351 179.726 221.598
 01 10 2023  08 27  -765.950 -765.979 084.353 179.744 221.591
 01 10 2023  08 28  -765.693 -765.805 084.378 179.745 221.519
 01 10 2023  08 29  -765.636 -765.676 084.413 179.753 221.476
 01 10 2023  08 30  -766.147 -765.454 084.435 179.714 221.440
 01 10 2023  08 31  -766.474 -765.550 084.429 179.754 221.447
 01 10 2023  08 32  -766.667 -765.495 084.366 179.764 221.437
 01 10 2023  08 33  -766.800 -765.609 084.336 179.766 221.408
 01 10 2023  08 34  -766.548 -765.637 084.318 179.761 221.367
 01 10 2023  08 35  -766.373 -765.780 084.312 179.709 221.314
 01 10 2023  08 36  -766.288 -765.920 084.294 179.776 221.297
 01 10 2023  08 37  -766.067 -765.945 084.262 179.777 221.238
 01 10 2023  08 38  -765.806 -765.972 084.205 179.778 221.223
 01 10 2023  08 39  -765.490 -766.087 084.195 179.780 221.203
 01 10 2023  08 40  -765.039 -765.916 084.217 179.773 221.157
 01 10 2023  08 41  -764.840 -765.945 084.245 179.792 221.116
 01 10 2023  08 42  -764.819 -765.940 084.261 179.796 221.076
 01 10 2023  08 43  -764.609 -765.866 084.237 179.804 221.038
 01 10 2023  08 44  -764.314 -765.711 084.235 179.809 221.009
 01 10 2023  08 45  -764.392 -765.509 084.310 179.787 220.952
 01 10 2023  08 46  -764.391 -765.392 084.421 179.807 220.928
 01 10 2023  08 47  -764.305 -765.321 084.384 179.826 220.851
 01 10 2023  08 48  -763.888 -765.276 084.453 179.830 220.869
 01 10 2023  08 49  -763.483 -765.306 084.457 179.827 220.815
 01 10 2023  08 50  -763.563 -765.361 084.502 179.822 220.773
 01 10 2023  08 51  -763.349 -765.300 084.583 179.819 220.753
 01 10 2023  08 52  -763.092 -765.154 084.645 179.843 220.721
 01 10 2023  08 53  -762.917 -765.083 084.671 179.849 220.706
 01 10 2023  08 54  -762.754 -764.982 084.756 179.852 220.711
 01 10 2023  08 55  -762.647 -764.768 084.830 179.848 220.679
 01 10 2023  08 56  -762.810 -764.557 084.864 179.860 220.630
 01 10 2023  08 57  -763.049 -764.313 084.907 179.850 220.576
 01 10 2023  08 58  -763.333 -764.405 084.932 179.867 220.536
 01 10 2023  08 59  -763.629 -764.682 084.929 179.868 220.535
 01 10 2023  09 00  -763.564 -764.996 084.860 179.837 220.472
 01 10 2023  09 01  -763.474 -765.031 084.877 179.864 220.423
 01 10 2023  09 02  -763.562 -764.815 084.878 179.884 220.413
 01 10 2023  09 03  -763.501 -764.485 084.939 179.878 220.387
 01 10 2023  09 04  -763.523 -764.259 085.050 179.880 220.348
 01 10 2023  09 05  -763.443 -763.994 085.053 179.890 220.318
 01 10 2023  09 06  -763.266 -763.676 085.181 179.897 220.288
 01 10 2023  09 07  -763.155 -763.481 085.256 179.898 220.259
 01 10 2023  09 08  -762.894 -763.174 085.390 179.899 220.227
 01 10 2023  09 09  -762.752 -762.945 085.536 179.902 220.236
 01 10 2023  09 10  -762.506 -762.708 085.652 179.897 220.209
 01 10 2023  09 11  -762.147 -762.483 085.797 179.906 220.169
 01 10 2023  09 12  -761.867 -762.164 085.918 179.921 220.142
 01 10 2023  09 13  -761.687 -761.939 086.096 179.921 220.136
 01 10 2023  09 14  -761.312 -761.692 086.209 179.930 220.101
 01 10 2023  09 15  -760.978 -761.532 086.317 179.841 220.031
 01 10 2023  09 16  -760.419 -761.196 086.447 179.929 220.042
 01 10 2023  09 17  -759.997 -760.930 086.588 179.942 220.045
 01 10 2023  09 18  -759.680 -760.641 086.738 179.937 219.980
 01 10 2023  09 19  -759.524 -760.667 086.816 179.950 219.966
 01 10 2023  09 20  -759.448 -760.897 086.855 179.918 219.916
 01 10 2023  09 21  -759.300 -761.163 086.808 179.950 219.944
 01 10 2023  09 22  -759.238 -761.619 086.766 179.952 219.900
 01 10 2023  09 23  -759.239 -762.116 086.611 179.971 219.893
 01 10 2023  09 24  -759.191 -762.438 086.505 179.970 219.846
 01 10 2023  09 25  -759.070 -762.312 086.415 179.954 219.806
 01 10 2023  09 26  -758.526 -761.824 086.427 179.976 219.810
 01 10 2023  09 27  -758.024 -761.498 086.479 179.977 219.776
 01 10 2023  09 28  -757.475 -761.066 086.553 179.981 219.765
 01 10 2023  09 29  -756.900 -760.541 086.652 179.988 219.730
 01 10 2023  09 30  -756.111 -760.253 086.748 179.981 219.705
 01 10 2023  09 31  -755.364 -760.127 086.939 179.990 219.656
 01 10 2023  09 32  -754.685 -759.979 087.070 179.988 219.658
 01 10 2023  09 33  -754.133 -760.083 087.138 179.996 219.634
 01 10 2023  09 34  -753.882 -760.246 087.140 180.013 219.615
 01 10 2023  09 35  -753.613 -760.376 087.102 180.007 219.540
 01 10 2023  09 36  -753.259 -760.493 087.145 180.007 219.510
 01 10 2023  09 37  -752.713 -760.324 087.237 180.019 219.533
 01 10 2023  09 38  -751.888 -760.226 087.496 180.021 219.506
 01 10 2023  09 39  -751.547 -760.150 087.537 180.020 219.498
 01 10 2023  09 40  -751.183 -760.114 087.532 179.987 219.433
 01 10 2023  09 41  -750.750 -760.157 087.552 180.027 219.409
 01 10 2023  09 42  -750.340 -760.316 087.539 180.035 219.395
 01 10 2023  09 43  -750.072 -760.439 087.550 180.043 219.384
 01 10 2023  09 44  -749.687 -760.692 087.494 180.046 219.359
 01 10 2023  09 45  -749.404 -760.958 087.445 180.020 219.353
 01 10 2023  09 46  -749.005 -761.311 087.401 180.050 219.340
 01 10 2023  09 47  -748.743 -761.579 087.345 180.052 219.308
 01 10 2023  09 48  -748.635 -762.095 087.342 180.053 219.294
 01 10 2023  09 49  -748.703 -762.375 087.298 180.052 219.259
 01 10 2023  09 50  -748.866 -762.679 087.231 180.050 219.212
 01 10 2023  09 51  -748.786 -762.707 087.265 180.060 219.165
 01 10 2023  09 52  -748.783 -762.659 087.267 180.071 219.189
 01 10 2023  09 53  -748.621 -762.784 087.309 180.073 219.190
 01 10 2023  09 54  -748.579 -762.648 087.355 180.074 219.149
 01 10 2023  09 55  -748.572 -762.828 087.303 180.058 219.156
 01 10 2023  09 56  -748.660 -762.991 087.328 180.082 219.071
 01 10 2023  09 57  -748.535 -763.048 087.353 180.084 219.048
 01 10 2023  09 58  -748.518 -763.072 087.339 180.084 219.022
 01 10 2023  09 59  -748.490 -763.257 087.342 180.100 218.973
 01 10 2023  10 00  -748.473 -763.462 087.317 180.098 218.961
 01 10 2023  10 01  -748.437 -763.794 087.236 180.099 218.963
 01 10 2023  10 02  -748.224 -763.928 087.157 180.106 218.904
 01 10 2023  10 03  -747.739 -763.947 087.155 180.102 218.897
 01 10 2023  10 04  -747.228 -763.974 087.126 180.109 218.888
 01 10 2023  10 05  -746.999 -763.955 087.075 180.096 218.854
 01 10 2023  10 06  -746.748 -764.081 087.041 180.115 218.828
 01 10 2023  10 07  -746.833 -764.265 087.012 180.124 218.843
 01 10 2023  10 08  -746.618 -764.157 086.961 180.119 218.779
 01 10 2023  10 09  -746.343 -764.121 086.948 180.129 218.795
 01 10 2023  10 10  -745.964 -764.079 086.963 180.088 218.792
 01 10 2023  10 11  -745.624 -764.094 086.945 180.131 218.719
 01 10 2023  10 12  -745.325 -764.074 086.947 180.135 218.702
 01 10 2023  10 13  -744.938 -763.809 086.977 180.140 218.671
 01 10 2023  10 14  -745.077 -763.759 087.019 180.140 218.657
 01 10 2023  10 15  -745.285 -763.584 087.023 180.124 218.630
 01 10 2023  10 16  -745.169 -763.357 087.077 180.137 218.560
 01 10 2023  10 17  -745.058 -763.217 087.083 180.142 218.514
 01 10 2023  10 18  -744.829 -763.245 087.095 180.156 218.559
 01 10 2023  10 19  -744.601 -763.425 087.033 180.153 218.555
 01 10 2023  10 20  -744.458 -763.851 086.871 180.136 218.472
 01 10 2023  10 21  -744.163 -763.854 086.754 180.152 218.452
 01 10 2023  10 22  -744.051 -763.794 086.657 180.163 218.399
 01 10 2023  10 23  -743.756 -763.915 086.616 180.166 218.379
 01 10 2023  10 24  -743.596 -764.016 086.474 180.168 218.375
 01 10 2023  10 25  -743.498 -764.402 086.362 180.115 218.357
 01 10 2023  10 26  -743.244 -765.029 086.190 180.177 218.324
 01 10 2023  10 27  -742.867 -765.406 085.991 180.167 218.286
 01 10 2023  10 28  -742.682 -765.532 085.843 180.182 218.237
 01 10 2023  10 29  -742.601 -765.855 085.687 180.185 218.243
 01 10 2023  10 30  -742.511 -766.203 085.481 180.104 218.222
 01 10 2023  10 31  -742.323 -766.504 085.257 180.180 218.181
 01 10 2023  10 32  -742.233 -766.864 085.038 180.197 218.155
 01 10 2023  10 33  -742.164 -766.922 084.827 180.194 218.114
 01 10 2023  10 34  -742.045 -767.046 084.691 180.193 218.122
 01 10 2023  10 35  -741.988 -767.144 084.547 180.158 218.079
 01 10 2023  10 36  -741.925 -767.273 084.413 180.193 218.046
 01 10 2023  10 37  -740.985 -767.866 084.534 180.197 218.070
 01 10 2023  10 38  -740.110 -768.374 084.445 180.206 217.995
 01 10 2023  10 39  -739.885 -768.795 084.374 180.209 217.961
 01 10 2023  10 40  -739.937 -769.404 084.242 180.209 217.984
 01 10 2023  10 41  -739.837 -769.854 084.115 180.200 217.913
 01 10 2023  10 42  -739.428 -770.115 083.976 180.215 217.888
 01 10 2023  10 43  -739.904 -770.466 083.807 180.218 217.882
 01 10 2023  10 44  -739.382 -770.255 083.821 180.213 217.873
 01 10 2023  10 45  -738.802 -769.793 083.822 180.204 217.767
 01 10 2023  10 46  -738.676 -770.012 083.790 180.229 217.768
 01 10 2023  10 47  -735.813 -765.715 084.920 180.233 217.760
 01 10 2023  10 48  -731.185 -776.285 083.706 180.237 217.735
 01 10 2023  10 49  -736.066 -773.087 083.601 180.234 217.699
 01 10 2023  10 50  -736.161 -773.121 083.413 180.185 217.673
 01 10 2023  10 51  -735.936 -773.536 083.267 180.238 217.626
 01 10 2023  10 52  -735.387 -773.426 083.133 180.248 217.636
 01 10 2023  10 53  -734.780 -773.565 083.023 180.245 217.607
 01 10 2023  10 54  -734.076 -773.708 082.957 180.245 217.591
 01 10 2023  10 55  -733.645 -773.643 082.875 180.217 217.557
 01 10 2023  10 56  -733.150 -773.524 082.921 180.246 217.539
 01 10 2023  10 57  -731.809 -773.413 082.823 180.246 217.522
 01 10 2023  10 58  -731.736 -773.831 082.721 180.260 217.506
 01 10 2023  10 59  -731.313 -774.193 082.579 180.261 217.507
 01 10 2023  11 00  -731.329 -775.095 082.482 180.257 217.458
 01 10 2023  11 01  -730.766 -775.328 082.317 180.269 217.399
 01 10 2023  11 02  -731.346 -776.583 082.280 180.272 217.375
 01 10 2023  11 03  -731.686 -778.579 082.081 180.268 217.368
 01 10 2023  11 04  -731.103 -778.538 081.862 180.273 217.355
 01 10 2023  11 05  -730.731 -778.823 081.573 180.272 217.328
 01 10 2023  11 06  -731.222 -779.687 081.422 180.278 217.355
 01 10 2023  11 07  -731.982 -780.203 081.254 180.282 217.310
 01 10 2023  11 08  -732.144 -779.125 081.203 180.287 217.303
 01 10 2023  11 09  -733.144 -779.768 081.088 180.295 217.282
 01 10 2023  11 10  -733.648 -780.450 080.914 180.244 217.288
 01 10 2023  11 11  -733.498 -781.066 080.729 180.283 217.223
 01 10 2023  11 12  -735.739 -781.238 080.650 180.296 217.218
 01 10 2023  11 13  -726.528 -782.048 082.144 180.290 217.171
 01 10 2023  11 14  -735.263 -780.271 080.336 180.303 217.144
 01 10 2023  11 15  -736.414 -783.191 080.034 180.292 217.118
 01 10 2023  11 16  -737.843 -786.164 079.560 180.294 217.111
 01 10 2023  11 17  -737.679 -787.245 079.238 180.302 217.050
 01 10 2023  11 18  -737.819 -788.532 078.934 180.299 217.107
 01 10 2023  11 19  -738.141 -790.138 078.133 180.308 217.059
 01 10 2023  11 20  -738.868 -790.387 077.742 180.211 217.048
 01 10 2023  11 21  -738.666 -788.740 077.574 180.312 217.031
 01 10 2023  11 22  -738.338 -788.237 077.360 180.319 216.988
 01 10 2023  11 23  -738.129 -789.839 077.257 180.319 217.002
 01 10 2023  11 24  -737.710 -791.013 077.082 180.324 216.997
 01 10 2023  11 25  -737.579 -791.006 076.922 180.254 216.976
 01 10 2023  11 26  -736.776 -790.670 076.921 180.324 216.958
 01 10 2023  11 27  -736.642 -792.071 076.922 180.332 216.947
 01 10 2023  11 28  -736.410 -793.236 076.745 180.323 216.955
 01 10 2023  11 29  -736.366 -794.807 076.576 180.332 216.960
 01 10 2023  11 30  -736.480 -795.447 076.424 180.329 216.950
 01 10 2023  11 31  -736.338 -796.087 076.264 180.339 216.931
 01 10 2023  11 32  -735.858 -796.413 076.178 180.331 216.955
 01 10 2023  11 33  -736.334 -796.658 076.108 180.337 216.922
 01 10 2023  11 34  -736.928 -796.793 075.983 180.339 216.886
 01 10 2023  11 35  -737.240 -796.794 075.923 180.295 216.855
 01 10 2023  11 36  -737.550 -797.134 076.030 180.346 216.883
 01 10 2023  11 37  -738.339 -797.325 075.989 180.344 216.872
 01 10 2023  11 38  -738.585 -797.146 075.934 180.354 216.854
 01 10 2023  11 39  -738.445 -797.056 075.927 180.356 216.856
 01 10 2023  11 40  -738.301 -796.779 076.049 180.346 216.843
 01 10 2023  11 41  -738.312 -797.141 076.184 180.346 216.833
 01 10 2023  11 42  -738.194 -797.515 076.293 180.356 216.815
 01 10 2023  11 43  -738.168 -797.132 076.320 180.351 216.769
 01 10 2023  11 44  -738.010 -797.332 076.437 180.358 216.768
 01 10 2023  11 45  -737.603 -797.715 076.468 180.302 216.789
 01 10 2023  11 46  -737.275 -798.236 076.515 180.362 216.756
 01 10 2023  11 47  -737.202 -798.057 076.569 180.364 216.765
 01 10 2023  11 48  -737.259 -797.612 076.724 180.362 216.790
 01 10 2023  11 49  -737.713 -797.835 076.739 180.366 216.790
 01 10 2023  11 50  -737.698 -797.162 076.763 180.363 216.768
 01 10 2023  11 51  -738.741 -796.716 076.993 180.373 216.770
 01 10 2023  11 52  -740.424 -795.740 077.126 180.374 216.757
 01 10 2023  11 53  -741.785 -794.552 077.344 180.376 216.762
 01 10 2023  11 54  -742.542 -794.416 077.544 180.379 216.723
 01 10 2023  11 55  -743.856 -794.825 077.410 180.346 216.743
 01 10 2023  11 56  -744.786 -794.582 077.331 180.380 216.752
 01 10 2023  11 57  -745.612 -794.415 077.182 180.378 216.754
 01 10 2023  11 58  -746.203 -794.668 077.024 180.382 216.788
 01 10 2023  11 59  -745.977 -793.794 077.200 180.389 216.755
 01 10 2023  12 00  -745.023 -793.748 077.486 180.383 216.759
 01 10 2023  12 01  -744.394 -794.414 077.784 180.384 216.714
 01 10 2023  12 02  -744.577 -795.697 077.978 180.385 216.742
 01 10 2023  12 03  -745.236 -796.760 077.862 180.387 216.741
 01 10 2023  12 04  -745.410 -797.520 077.740 180.389 216.768
 01 10 2023  12 05  -745.776 -797.734 077.593 180.341 216.760
 01 10 2023  12 06  -745.298 -797.968 077.536 180.384 216.808
 01 10 2023  12 07  -744.200 -799.139 077.370 180.400 216.820
 01 10 2023  12 08  -743.823 -799.262 077.333 180.401 216.813
 01 10 2023  12 09  -743.274 -799.749 077.396 180.408 216.825
 01 10 2023  12 10  -743.029 -800.901 077.421 180.353 216.839
 01 10 2023  12 11  -742.975 -802.236 077.535 180.406 216.853
 01 10 2023  12 12  -744.213 -800.932 077.499 180.402 216.828
 01 10 2023  12 13  -743.215 -801.134 077.354 180.413 216.841
 01 10 2023  12 14  -742.006 -801.363 077.638 180.403 216.843
 01 10 2023  12 15  -741.219 -801.076 078.059 180.379 216.861
 01 10 2023  12 16  -741.002 -801.626 078.437 180.412 216.884
 01 10 2023  12 17  -740.546 -801.977 078.813 180.414 216.917
 01 10 2023  12 18  -738.877 -802.094 079.158 180.416 216.931
 01 10 2023  12 19  -737.161 -801.795 079.660 180.414 216.922
 01 10 2023  12 20  -735.760 -801.978 080.176 180.395 216.955
 01 10 2023  12 21  -734.249 -802.404 080.738 180.414 216.977
 01 10 2023  12 22  -733.448 -803.011 081.177 180.429 216.985
 01 10 2023  12 23  -732.486 -803.231 081.531 180.424 216.975
 01 10 2023  12 24  -731.335 -802.382 081.934 180.430 216.998
 01 10 2023  12 25  -730.556 -802.520 082.427 180.428 216.990
 01 10 2023  12 26  -729.688 -801.960 082.910 180.421 217.036
 01 10 2023  12 27  -729.211 -801.559 083.395 180.422 217.042
 01 10 2023  12 28  -729.160 -801.557 083.794 180.435 217.037
 01 10 2023  12 29  -729.227 -802.276 084.067 180.432 217.044
 01 10 2023  12 30  -728.400 -802.747 084.262 180.433 217.111
 01 10 2023  12 31  -727.453 -803.194 084.619 180.433 217.149
 01 10 2023  12 32  -726.535 -803.250 085.060 180.435 217.119
 01 10 2023  12 33  -725.054 -803.374 085.555 180.433 217.110
 01 10 2023  12 34  -724.589 -803.583 086.096 180.440 217.156
 01 10 2023  12 35  -724.777 -803.320 086.496 180.330 217.183
 01 10 2023  12 36  -724.885 -804.031 086.753 180.435 217.211
 01 10 2023  12 37  -724.534 -804.729 086.881 180.439 217.207
 01 10 2023  12 38  -724.964 -805.058 087.111 180.443 217.220
 01 10 2023  12 39  -725.494 -805.677 087.143 180.443 217.207
 01 10 2023  12 40  -725.326 -805.890 087.237 180.443 217.236
 01 10 2023  12 41  -724.896 -806.820 087.344 180.448 217.290
 01 10 2023  12 42  -723.835 -807.301 087.495 180.446 217.277
 01 10 2023  12 43  -722.001 -806.733 087.872 180.459 217.304
 01 10 2023  12 44  -720.967 -806.229 088.504 180.459 217.320
 01 10 2023  12 45  -719.364 -806.266 089.092 180.421 217.369
 01 10 2023  12 46  -717.024 -805.746 089.902 180.442 217.391
 01 10 2023  12 47  -715.293 -805.252 090.708 180.447 217.420
 01 10 2023  12 48  -714.633 -806.117 091.425 180.456 217.400
 01 10 2023  12 49  -714.439 -806.715 091.892 180.464 217.427
 01 10 2023  12 50  -714.280 -806.598 092.263 180.416 217.456
 01 10 2023  12 51  -714.801 -806.606 092.656 180.461 217.475
 01 10 2023  12 52  -714.815 -806.684 093.050 180.455 217.528
 01 10 2023  12 53  -715.149 -806.040 093.431 180.450 217.515
 01 10 2023  12 54  -715.787 -806.243 093.800 180.458 217.551
 01 10 2023  12 55  -716.598 -806.566 094.066 180.435 217.557
 01 10 2023  12 56  -717.045 -806.755 094.349 180.463 217.565
 01 10 2023  12 57  -717.061 -807.161 094.680 180.459 217.604
 01 10 2023  12 58  -717.113 -807.522 094.994 180.463 217.618
 01 10 2023  12 59  -717.753 -808.203 095.285 180.464 217.688
 01 10 2023  13 00  -719.196 -809.409 095.421 180.427 217.689
 01 10 2023  13 01  -719.323 -810.113 095.505 180.464 217.723
 01 10 2023  13 02  -718.808 -811.251 095.733 180.461 217.716
 01 10 2023  13 03  -718.675 -812.737 095.883 180.465 217.767
 01 10 2023  13 04  -717.705 -813.146 096.200 180.465 217.799
 01 10 2023  13 05  -716.384 -812.144 096.704 180.462 217.841
 01 10 2023  13 06  -715.544 -811.562 097.383 180.476 217.872
 01 10 2023  13 07  -715.591 -811.845 098.028 180.475 217.878
 01 10 2023  13 08  -716.050 -811.661 098.532 180.474 217.930
 01 10 2023  13 09  -715.705 -811.517 099.038 180.472 217.988
 01 10 2023  13 10  -714.730 -811.129 099.695 180.456 217.998
 01 10 2023  13 11  -714.260 -811.886 100.911 180.476 218.005
 01 10 2023  13 12  -714.091 -811.895 101.714 180.487 218.030
 01 10 2023  13 13  -714.690 -811.924 102.361 180.481 218.073
 01 10 2023  13 14  -716.856 -812.854 102.625 180.478 218.089
 01 10 2023  13 15  -718.177 -813.508 102.810 180.468 218.092
 01 10 2023  13 16  -718.669 -813.346 103.083 180.480 218.128
 01 10 2023  13 17  -719.196 -813.654 103.366 180.486 218.170
 01 10 2023  13 18  -719.846 -813.891 103.616 180.488 218.194
 01 10 2023  13 19  -720.605 -813.770 103.502 180.480 218.238
 01 10 2023  13 20  -721.652 -813.548 103.260 180.459 218.270
 01 10 2023  13 21  -722.577 -813.948 103.258 180.487 218.290
 01 10 2023  13 22  -723.201 -814.500 103.327 180.491 218.320
 01 10 2023  13 23  -723.814 -815.371 103.277 180.497 218.333
 01 10 2023  13 24  -724.325 -816.413 103.217 180.491 218.398
 01 10 2023  13 25  -724.097 -817.087 103.173 180.467 218.400
 01 10 2023  13 26  -724.227 -817.634 103.287 180.488 218.470
 01 10 2023  13 27  -724.000 -817.552 103.442 180.500 218.530
 01 10 2023  13 28  -724.124 -817.951 104.107 180.501 218.540
 01 10 2023  13 29  -724.060 -817.411 104.510 180.502 218.521
 01 10 2023  13 30  -724.525 -817.130 104.877 180.431 218.569
 01 10 2023  13 31  -724.893 -816.643 105.202 180.495 218.629
 01 10 2023  13 32  -725.322 -816.343 105.446 180.507 218.695
 01 10 2023  13 33  -725.796 -816.181 105.662 180.511 218.710
 01 10 2023  13 34  -726.064 -816.158 105.757 180.506 218.751
 01 10 2023  13 35  -726.414 -816.613 105.937 180.504 218.760
 01 10 2023  13 36  -727.344 -817.472 106.047 180.514 218.832
 01 10 2023  13 37  -728.064 -818.216 106.055 180.508 218.855
 01 10 2023  13 38  -728.162 -819.374 106.015 180.511 218.875
 01 10 2023  13 39  -728.481 -820.527 106.017 180.519 218.935
 01 10 2023  13 40  -728.154 -821.422 106.025 180.504 219.001
 01 10 2023  13 41  -727.408 -821.618 106.184 180.507 219.002
 01 10 2023  13 42  -726.369 -821.129 106.505 180.523 219.058
 01 10 2023  13 43  -724.604 -820.775 107.016 180.512 219.123
 01 10 2023  13 44  -721.737 -819.862 107.765 180.518 219.166
 01 10 2023  13 45  -719.824 -818.576 108.693 180.430 219.254
 01 10 2023  13 46  -719.687 -817.321 109.661 180.522 219.263
 01 10 2023  13 47  -718.968 -816.318 110.455 180.518 219.267
 01 10 2023  13 48  -717.924 -815.748 111.275 180.518 219.350
 01 10 2023  13 49  -716.834 -815.766 112.153 180.529 219.450
 01 10 2023  13 50  -715.984 -815.746 112.993 180.526 219.502
 01 10 2023  13 51  -715.164 -815.981 113.707 180.514 219.520
 01 10 2023  13 52  -715.167 -816.780 114.411 180.524 219.575
 01 10 2023  13 53  -714.839 -817.610 114.919 180.532 219.652
 01 10 2023  13 54  -713.040 -818.175 115.596 180.527 219.714
 01 10 2023  13 55  -711.875 -818.370 116.445 180.513 219.751
 01 10 2023  13 56  -709.596 -818.065 117.295 180.523 219.775
 01 10 2023  13 57  -709.283 -817.859 118.130 180.543 219.842
 01 10 2023  13 58  -708.984 -818.258 118.728 180.531 219.936
 01 10 2023  13 59  -708.877 -818.682 119.366 180.532 219.969
 01 10 2023  14 00  -708.548 -819.042 119.918 180.531 220.033
 01 10 2023  14 01  -708.339 -819.190 120.319 180.529 220.105
 01 10 2023  14 02  -706.435 -818.621 120.822 180.527 220.160
 01 10 2023  14 03  -704.429 -818.276 121.657 180.529 220.253
 01 10 2023  14 04  -702.811 -817.866 122.546 180.541 220.278
 01 10 2023  14 05  -700.943 -817.617 123.354 180.490 220.309
 01 10 2023  14 06  -698.770 -816.681 124.343 180.526 220.353
 01 10 2023  14 07  -697.286 -815.583 125.361 180.537 220.385
 01 10 2023  14 08  -697.793 -814.531 126.214 180.533 220.451
 01 10 2023  14 09  -699.185 -813.841 126.890 180.544 220.509
 01 10 2023  14 10  -700.961 -813.724 127.208 180.513 220.546
 01 10 2023  14 11  -702.829 -814.208 127.470 180.541 220.594
 01 10 2023  14 12  -705.335 -814.997 127.397 180.534 220.645
 01 10 2023  14 13  -707.058 -815.919 127.183 180.539 220.726
 01 10 2023  14 14  -707.847 -816.486 127.022 180.542 220.782
 01 10 2023  14 15  -708.681 -815.535 127.047 180.533 220.782
 01 10 2023  14 16  -708.634 -814.517 127.078 180.533 220.851
 01 10 2023  14 17  -708.362 -813.637 127.321 180.546 220.923
 01 10 2023  14 18  -707.686 -813.174 127.613 180.544 220.969
 01 10 2023  14 19  -706.799 -812.411 127.848 180.547 221.038
 01 10 2023  14 20  -707.382 -811.786 128.206 180.537 221.076
 01 10 2023  14 21  -707.238 -812.523 128.653 180.546 221.101
 01 10 2023  14 22  -705.457 -812.164 129.118 180.548 221.139
 01 10 2023  14 23  -703.618 -810.909 129.878 180.547 221.232
 01 10 2023  14 24  -701.673 -808.960 130.859 180.543 221.246
 01 10 2023  14 25  -700.920 -806.753 131.923 180.501 221.292
 01 10 2023  14 26  -701.699 -804.775 132.949 180.550 221.339
 01 10 2023  14 27  -702.401 -803.844 133.693 180.554 221.352
 01 10 2023  14 28  -704.266 -803.657 134.365 180.546 221.431
 01 10 2023  14 29  -706.740 -803.924 134.700 180.553 221.469
 01 10 2023  14 30  -708.176 -803.951 134.897 180.516 221.506
 01 10 2023  14 31  -707.794 -802.941 135.515 180.557 221.534
 01 10 2023  14 32  -705.792 -801.431 136.418 180.557 221.587
 01 10 2023  14 33  -705.932 -801.634 136.767 180.557 221.616
 01 10 2023  14 34  -705.879 -801.522 137.094 180.559 221.577
 01 10 2023  14 35  -706.356 -801.070 137.555 180.552 221.620
 01 10 2023  14 36  -706.967 -800.212 138.106 180.551 221.668
 01 10 2023  14 37  -707.048 -799.023 138.549 180.560 221.709
 01 10 2023  14 38  -706.992 -797.695 139.087 180.559 221.732
 01 10 2023  14 39  -707.197 -796.251 139.674 180.556 221.772
 01 10 2023  14 40  -706.908 -794.815 140.281 180.531 221.785
 01 10 2023  14 41  -707.054 -793.990 140.955 180.548 221.841
 01 10 2023  14 42  -707.540 -793.539 141.518 180.562 221.874
 01 10 2023  14 43  -707.496 -793.104 142.090 180.571 221.895
 01 10 2023  14 44  -707.485 -792.852 142.593 180.570 221.962
 01 10 2023  14 45  -707.207 -792.557 143.156 180.518 221.965
 01 10 2023  14 46  -706.983 -792.055 143.738 180.555 221.959
 01 10 2023  14 47  -707.075 -791.429 144.406 180.562 221.986
 01 10 2023  14 48  -706.576 -790.721 145.107 180.561 222.011
 01 10 2023  14 49  -705.767 -789.920 145.861 180.562 222.045
 01 10 2023  14 50  -703.713 -788.604 146.666 180.554 222.066
 01 10 2023  14 51  -701.837 -787.757 147.554 180.565 222.096
 01 10 2023  14 52  -700.656 -786.677 148.618 180.569 222.108
 01 10 2023  14 53  -699.743 -785.815 149.585 180.555 222.173
 01 10 2023  14 54  -698.830 -785.048 150.619 180.572 222.199
 01 10 2023  14 55  -698.589 -784.687 151.556 180.558 222.216
 01 10 2023  14 56  -698.584 -784.515 152.420 180.561 222.260
 01 10 2023  14 57  -698.638 -784.131 153.219 180.570 222.277
 01 10 2023  14 58  -698.434 -783.770 153.994 180.571 222.288
 01 10 2023  14 59  -697.684 -783.359 154.756 180.572 222.310
 01 10 2023  15 00  -697.036 -783.090 155.503 180.543 222.351
 01 10 2023  15 01  -696.731 -782.672 156.329 180.567 222.384
 01 10 2023  15 02  -696.312 -782.125 157.055 180.575 222.418
 01 10 2023  15 03  -695.221 -781.251 157.797 180.571 222.458
 01 10 2023  15 04  -694.588 -780.280 158.604 180.572 222.485
 01 10 2023  15 05  -693.912 -779.422 159.313 180.574 222.504
 01 10 2023  15 06  -694.075 -779.226 160.061 180.566 222.533
 01 10 2023  15 07  -694.845 -779.516 160.623 180.577 222.591
 01 10 2023  15 08  -694.952 -778.895 160.980 180.575 222.617
 01 10 2023  15 09  -695.228 -778.623 161.169 180.574 222.626
 01 10 2023  15 10  -695.329 -778.505 161.448 180.531 222.674
 01 10 2023  15 11  -695.337 -777.120 162.269 180.573 222.688
 01 10 2023  15 12  -694.847 -777.493 162.630 180.569 222.710
 01 10 2023  15 13  -694.044 -776.541 163.078 180.574 222.782
 01 10 2023  15 14  -693.569 -775.595 163.582 180.575 222.844
 01 10 2023  15 15  -693.193 -774.790 163.967 180.569 222.865
 01 10 2023  15 16  -692.834 -773.893 164.499 180.573 222.942
 01 10 2023  15 17  -692.803 -773.192 165.009 180.578 222.972
 01 10 2023  15 18  -693.086 -772.248 165.205 180.576 223.002
 01 10 2023  15 19  -692.960 -771.440 165.714 180.579 223.010
 01 10 2023  15 20  -692.889 -770.960 166.230 180.541 223.042
 01 10 2023  15 21  -692.615 -770.396 166.728 180.572 223.089
 01 10 2023  15 22  -692.458 -769.770 167.147 180.582 223.145
 01 10 2023  15 23  -692.512 -769.132 167.605 180.578 223.236
 01 10 2023  15 24  -692.197 -768.259 168.000 180.592 223.281
 01 10 2023  15 25  -691.196 -767.170 168.439 180.550 223.378
 01 10 2023  15 26  -689.930 -765.936 169.103 180.586 223.367
 01 10 2023  15 27  -688.562 -764.669 169.770 180.583 223.429
 01 10 2023  15 28  -687.129 -763.333 170.485 180.591 223.495
 01 10 2023  15 29  -686.120 -761.786 171.270 180.584 223.515
 01 10 2023  15 30  -684.845 -760.273 172.052 180.579 223.575
 01 10 2023  15 31  -684.431 -759.038 172.905 180.577 223.685
 01 10 2023  15 32  -684.523 -757.820 173.577 180.585 223.749
 01 10 2023  15 33  -684.158 -756.520 174.128 180.581 223.779
 01 10 2023  15 34  -684.305 -755.387 174.805 180.593 223.808
 01 10 2023  15 35  -684.015 -753.917 175.039 180.561 223.875
 01 10 2023  15 36  -684.666 -753.266 175.393 180.582 223.941
 01 10 2023  15 37  -685.913 -752.994 175.666 180.585 223.974
 01 10 2023  15 38  -687.447 -753.149 175.817 180.584 224.027
 01 10 2023  15 39  -688.986 -753.285 175.803 180.590 224.109
 01 10 2023  15 40  -690.409 -753.374 175.645 180.579 224.167
 01 10 2023  15 41  -691.096 -753.233 175.527 180.587 224.210
 01 10 2023  15 42  -691.379 -752.913 175.523 180.580 224.304
 01 10 2023  15 43  -691.502 -752.337 175.576 180.583 224.347
 01 10 2023  15 44  -691.567 -752.713 175.936 180.575 224.408
 01 10 2023  15 45  -689.381 -751.958 176.599 180.523 224.482
 01 10 2023  15 46  -686.726 -751.444 177.211 180.581 224.527
 01 10 2023  15 47  -690.977 -752.124 177.799 180.578 224.573
 01 10 2023  15 48  -687.026 -748.734 177.445 180.581 224.622
 01 10 2023  15 49  -684.609 -746.754 177.750 180.579 224.642
 01 10 2023  15 50  -684.019 -745.511 178.259 180.580 224.695
 01 10 2023  15 51  -683.772 -744.744 178.839 180.582 224.757
 01 10 2023  15 52  -683.734 -744.168 179.260 180.591 224.783
 01 10 2023  15 53  -684.043 -743.651 179.592 180.585 224.886
 01 10 2023  15 54  -683.634 -741.589 180.099 180.578 224.942
 01 10 2023  15 55  -683.614 -740.608 180.554 180.513 224.990
 01 10 2023  15 56  -682.690 -739.113 180.988 180.586 225.061
 01 10 2023  15 57  -681.714 -737.174 181.668 180.587 225.094
 01 10 2023  15 58  -681.366 -735.775 182.334 180.580 225.140
 01 10 2023  15 59  -680.786 -734.585 183.051 180.576 225.198
 01 10 2023  16 00  -681.394 -733.861 183.597 180.581 225.221
 01 10 2023  16 01  -682.016 -733.326 184.198 180.592 225.308
 01 10 2023  16 02  -682.489 -732.625 184.547 180.584 225.320
 01 10 2023  16 03  -682.253 -731.584 184.872 180.591 225.373
 01 10 2023  16 04  -682.189 -730.741 185.358 180.586 225.454
 01 10 2023  16 05  -672.617 -728.345 188.643 180.587 225.505
 01 10 2023  16 06  -687.179 -729.494 188.895 180.596 225.579
 01 10 2023  16 07  -682.849 -727.934 186.577 180.583 225.639
 01 10 2023  16 08  -682.680 -727.292 186.984 180.580 225.708
 01 10 2023  16 09  -682.450 -726.394 187.414 180.577 225.744
 01 10 2023  16 10  -682.538 -725.243 187.925 180.594 225.830
 01 10 2023  16 11  -683.566 -724.928 188.373 180.588 225.824
 01 10 2023  16 12  -684.640 -724.754 188.550 180.587 225.883
 01 10 2023  16 13  -683.560 -724.561 190.123 180.589 225.966
 01 10 2023  16 14  -685.078 -725.089 188.867 180.585 226.031
 01 10 2023  16 15  -685.463 -724.669 189.122 180.586 226.104
 01 10 2023  16 16  -686.091 -724.243 189.400 180.591 226.176
 01 10 2023  16 17  -684.349 -722.621 191.089 180.584 226.222
 01 10 2023  16 18  -686.037 -721.912 190.041 180.592 226.273
 01 10 2023  16 19  -686.374 -720.830 190.615 180.592 226.364
 01 10 2023  16 20  -687.309 -720.038 191.019 180.591 226.390
 01 10 2023  16 21  -688.220 -719.531 191.407 180.600 226.489
 01 10 2023  16 22  -687.943 -718.284 191.906 180.598 226.528
 01 10 2023  16 23  -686.828 -716.513 192.447 180.588 226.609
 01 10 2023  16 24  -685.804 -715.265 193.139 180.586 226.713
 01 10 2023  16 25  -684.475 -713.924 193.879 180.597 226.758
 01 10 2023  16 26  -683.369 -712.809 194.627 180.593 226.836
 01 10 2023  16 27  -682.484 -711.885 195.338 180.602 226.888
 01 10 2023  16 28  -681.445 -709.882 196.089 180.589 227.004
 01 10 2023  16 29  -679.770 -706.952 197.063 180.595 227.024
 01 10 2023  16 30  -679.531 -704.776 198.131 180.590 227.115
 01 10 2023  16 31  -679.406 -703.124 199.074 180.587 227.173
 01 10 2023  16 32  -681.012 -703.262 199.749 180.587 227.226
 01 10 2023  16 33  -681.678 -703.673 200.078 180.585 227.345
 01 10 2023  16 34  -682.578 -703.688 200.467 180.588 227.432
 01 10 2023  16 35  -680.562 -703.727 200.193 180.595 227.525
 01 10 2023  16 36  -683.253 -702.732 200.627 180.592 227.596
 01 10 2023  16 37  -682.757 -701.889 200.770 180.590 227.678
 01 10 2023  16 38  -682.510 -700.907 201.082 180.587 227.799
 01 10 2023  16 39  -681.821 -699.560 201.374 180.594 227.951
 01 10 2023  16 40  -681.338 -698.025 201.791 180.594 228.014
 01 10 2023  16 41  -680.984 -696.613 202.255 180.594 228.129
 01 10 2023  16 42  -683.528 -692.839 202.470 180.588 228.197
 01 10 2023  16 43  -684.048 -692.059 202.813 180.603 228.278
 01 10 2023  16 44  -681.828 -693.968 203.347 180.588 228.401
 01 10 2023  16 45  -682.342 -693.043 203.644 180.591 228.492
 01 10 2023  16 46  -683.080 -692.408 203.835 180.597 228.622
 01 10 2023  16 47  -683.606 -691.860 203.972 180.596 228.713
 01 10 2023  16 48  -683.795 -691.048 204.099 180.588 228.806
 01 10 2023  16 49  -683.683 -690.436 204.177 180.588 228.934
 01 10 2023  16 50  -685.309 -691.005 204.211 180.586 229.074
 01 10 2023  16 51  -686.141 -690.776 204.146 180.600 229.193
 01 10 2023  16 52  -686.962 -690.587 204.040 180.599 229.288
 01 10 2023  16 53  -687.722 -690.114 203.847 180.600 229.384
 01 10 2023  16 54  -687.738 -688.314 203.635 180.593 229.474
 01 10 2023  16 55  -687.666 -687.164 203.523 180.596 229.596
 01 10 2023  16 56  -688.037 -686.535 203.538 180.592 229.738
 01 10 2023  16 57  -688.732 -686.200 203.420 180.604 229.874
 01 10 2023  16 58  -689.716 -685.859 203.295 180.598 229.965
 01 10 2023  16 59  -690.174 -685.239 203.063 180.597 230.060
 01 10 2023  17 00  -690.556 -684.578 202.848 180.554 230.168
 01 10 2023  17 01  -690.470 -683.934 202.737 180.593 230.299
 01 10 2023  17 02  -690.184 -683.457 202.617 180.594 230.373
 01 10 2023  17 03  -689.916 -682.761 202.513 180.592 230.486
 01 10 2023  17 04  -690.190 -682.161 202.396 180.600 230.637
 01 10 2023  17 05  -690.689 -681.654 202.189 180.596 230.781
 01 10 2023  17 06  -690.933 -680.920 201.929 180.597 230.891
 01 10 2023  17 07  -691.191 -680.352 201.659 180.597 230.985
 01 10 2023  17 08  -692.061 -680.060 201.407 180.592 231.146
 01 10 2023  17 09  -694.342 -680.117 200.663 180.595 231.208
 01 10 2023  17 10  -694.349 -680.308 199.983 180.585 231.329
 01 10 2023  17 11  -694.457 -679.468 199.682 180.598 231.440
 01 10 2023  17 12  -693.674 -678.978 199.456 180.602 231.539
 01 10 2023  17 13  -694.637 -677.795 199.135 180.609 231.638
 01 10 2023  17 14  -696.223 -677.132 198.950 180.605 231.754
 01 10 2023  17 15  -698.546 -677.738 199.119 180.600 231.890
 01 10 2023  17 16  -697.278 -671.209 197.907 180.596 232.014
 01 10 2023  17 17  -698.466 -672.081 197.119 180.598 232.097
 01 10 2023  17 18  -696.624 -671.794 195.965 180.598 232.184
 01 10 2023  17 19  -699.663 -671.959 196.073 180.594 232.315
 01 10 2023  17 20  -700.371 -671.697 195.549 180.581 232.409
 01 10 2023  17 21  -700.467 -670.592 195.102 180.590 232.493
 01 10 2023  17 22  -701.444 -670.540 194.583 180.597 232.616
 01 10 2023  17 23  -700.601 -670.331 194.196 180.606 232.756
 01 10 2023  17 24  -700.078 -669.015 193.807 180.597 232.855
 01 10 2023  17 25  -699.978 -667.955 193.589 180.572 232.973
 01 10 2023  17 26  -699.940 -666.748 193.435 180.579 233.036
 01 10 2023  17 27  -699.731 -665.707 193.243 180.596 233.155
 01 10 2023  17 28  -699.461 -664.857 193.123 180.594 233.275
 01 10 2023  17 29  -699.615 -664.063 192.982 180.598 233.348
 01 10 2023  17 30  -700.037 -663.380 192.817 180.571 233.471
 01 10 2023  17 31  -700.110 -662.845 192.547 180.593 233.594
 01 10 2023  17 32  -699.663 -661.925 192.373 180.598 233.656
 01 10 2023  17 33  -699.285 -660.367 192.425 180.592 233.757
 01 10 2023  17 34  -701.315 -659.940 192.086 180.606 233.852
 01 10 2023  17 35  -702.297 -660.094 191.777 180.546 233.981
 01 10 2023  17 36  -703.043 -659.999 191.212 180.598 234.088
 01 10 2023  17 37  -703.528 -659.817 190.734 180.597 234.194
 01 10 2023  17 38  -703.982 -659.233 190.319 180.603 234.261
 01 10 2023  17 39  -705.718 -659.959 189.741 180.594 234.369
 01 10 2023  17 40  -705.977 -658.764 188.950 180.594 234.508
 01 10 2023  17 41  -705.902 -658.722 188.399 180.597 234.558
 01 10 2023  17 42  -706.023 -660.131 188.057 180.593 234.677
 01 10 2023  17 43  -706.187 -660.678 187.685 180.601 234.787
 01 10 2023  17 44  -706.186 -660.236 187.147 180.599 234.906
 01 10 2023  17 45  -706.268 -660.171 186.573 180.577 234.972
 01 10 2023  17 46  -705.757 -659.536 185.858 180.595 235.069
 01 10 2023  17 47  -705.677 -659.179 185.383 180.598 235.140
 01 10 2023  17 48  -705.756 -657.579 185.150 180.598 235.256
 01 10 2023  17 49  -705.359 -656.978 185.141 180.603 235.360
 01 10 2023  17 50  -705.110 -656.585 184.763 180.589 235.460
 01 10 2023  17 51  -704.294 -655.668 184.316 180.595 235.563
 01 10 2023  17 52  -704.872 -657.938 184.090 180.598 235.657
 01 10 2023  17 53  -706.764 -659.432 183.682 180.595 235.742
 01 10 2023  17 54  -709.644 -659.468 183.443 180.606 235.883
 01 10 2023  17 55  -706.160 -656.691 182.480 180.537 235.990
 01 10 2023  17 56  -704.528 -656.338 181.892 180.592 236.060
 01 10 2023  17 57  -704.576 -656.172 181.531 180.609 236.140
 01 10 2023  17 58  -705.040 -655.619 181.317 180.609 236.246
 01 10 2023  17 59  -704.517 -655.839 180.657 180.596 236.347
 01 10 2023  18 00  -705.756 -656.389 180.084 180.563 236.454
 01 10 2023  18 01  -706.566 -656.600 179.531 180.610 236.547
 01 10 2023  18 02  -706.820 -656.654 178.986 180.601 236.644
 01 10 2023  18 03  -707.338 -657.024 178.348 180.604 236.723
 01 10 2023  18 04  -707.176 -657.388 177.763 180.606 236.770
 01 10 2023  18 05  -707.020 -657.922 177.248 180.570 236.853
 01 10 2023  18 06  -707.290 -658.718 176.745 180.594 236.928
 01 10 2023  18 07  -707.264 -658.990 176.201 180.596 237.016
 01 10 2023  18 08  -707.159 -659.117 175.630 180.597 237.094
 01 10 2023  18 09  -707.103 -658.990 175.148 180.604 237.147
 01 10 2023  18 10  -707.268 -659.016 174.760 180.581 237.221
 01 10 2023  18 11  -708.142 -659.184 174.253 180.596 237.282
 01 10 2023  18 12  -709.124 -659.622 173.568 180.601 237.348
 01 10 2023  18 13  -709.981 -659.862 172.994 180.602 237.449
 01 10 2023  18 14  -710.987 -660.453 172.339 180.595 237.497
 01 10 2023  18 15  -711.862 -661.084 171.565 180.569 237.576
 01 10 2023  18 16  -712.761 -661.500 170.875 180.601 237.631
 01 10 2023  18 17  -713.847 -661.983 170.146 180.589 237.681
 01 10 2023  18 18  -714.814 -662.458 169.362 180.594 237.755
 01 10 2023  18 19  -715.921 -663.139 168.556 180.598 237.808
 01 10 2023  18 20  -717.168 -664.039 167.751 180.544 237.856
 01 10 2023  18 21  -718.260 -664.657 166.931 180.583 237.902
 01 10 2023  18 22  -719.111 -665.163 166.062 180.594 237.996
 01 10 2023  18 23  -719.723 -665.636 165.200 180.598 238.070
 01 10 2023  18 24  -720.282 -666.012 164.381 180.606 238.128
 01 10 2023  18 25  -720.629 -666.716 163.572 180.579 238.171
 01 10 2023  18 26  -720.804 -667.223 162.851 180.586 238.219
 01 10 2023  18 27  -721.158 -667.992 162.179 180.597 238.274
 01 10 2023  18 28  -721.676 -668.558 161.509 180.595 238.350
 01 10 2023  18 29  -721.641 -668.289 160.950 180.590 238.400
 01 10 2023  18 30  -721.943 -667.976 160.442 180.589 238.467
 01 10 2023  18 31  -722.862 -668.315 159.935 180.591 238.517
 01 10 2023  18 32  -723.652 -668.729 159.395 180.593 238.555
 01 10 2023  18 33  -724.718 -669.198 158.830 180.600 238.626
 01 10 2023  18 34  -725.741 -669.840 158.163 180.587 238.708
 01 10 2023  18 35  -726.682 -670.396 157.477 180.559 238.766
 01 10 2023  18 36  -727.506 -670.958 156.844 180.588 238.828
 01 10 2023  18 37  -728.070 -671.138 156.223 180.594 238.919
 01 10 2023  18 38  -728.878 -671.524 155.607 180.592 238.938
 01 10 2023  18 39  -729.801 -672.142 154.937 180.593 238.919
 01 10 2023  18 40  -730.420 -672.412 154.218 180.571 239.002
 01 10 2023  18 41  -730.970 -672.560 153.667 180.589 239.077
 01 10 2023  18 42  -731.368 -672.705 153.066 180.593 239.122
 01 10 2023  18 43  -731.477 -673.792 153.232 180.586 239.154
 01 10 2023  18 44  -732.906 -676.087 152.165 180.596 239.249
 01 10 2023  18 45  -733.644 -676.712 151.526 180.583 239.276
 01 10 2023  18 46  -734.413 -676.911 150.975 180.570 239.365
 01 10 2023  18 47  -735.232 -677.367 150.300 180.589 239.399
 01 10 2023  18 48  -735.647 -677.690 149.661 180.600 239.480
 01 10 2023  18 49  -736.590 -678.735 149.023 180.590 239.499
 01 10 2023  18 50  -737.086 -679.225 148.427 180.576 239.540
 01 10 2023  18 51  -737.047 -679.277 147.884 180.586 239.596
 01 10 2023  18 52  -736.664 -678.924 147.484 180.576 239.674
 01 10 2023  18 53  -736.093 -678.416 147.136 180.592 239.727
 01 10 2023  18 54  -735.013 -678.070 147.115 180.588 239.772
 01 10 2023  18 55  -733.492 -677.180 147.149 180.585 239.820
 01 10 2023  18 56  -731.906 -676.096 147.353 180.570 239.840
 01 10 2023  18 57  -730.057 -675.048 147.565 180.587 239.911
 01 10 2023  18 58  -728.302 -673.895 147.891 180.578 239.904
 01 10 2023  18 59  -727.147 -673.170 148.100 180.576 239.955
 01 10 2023  19 00  -727.198 -672.959 148.160 180.584 240.008
 01 10 2023  19 01  -728.109 -673.369 148.088 180.576 240.031
 01 10 2023  19 02  -729.451 -673.876 147.821 180.588 240.074
 01 10 2023  19 03  -731.348 -674.611 147.292 180.574 240.134
 01 10 2023  19 04  -733.336 -675.756 146.711 180.576 240.167
 01 10 2023  19 05  -734.938 -676.671 146.026 180.570 240.210
 01 10 2023  19 06  -736.307 -677.467 145.262 180.577 240.241
 01 10 2023  19 07  -737.364 -677.919 144.462 180.577 240.271
 01 10 2023  19 08  -738.223 -678.190 143.718 180.567 240.268
 01 10 2023  19 09  -738.793 -678.312 143.115 180.576 240.319
 01 10 2023  19 10  -739.545 -678.945 142.441 180.467 240.360
 01 10 2023  19 11  -739.804 -679.145 141.730 180.576 240.378
 01 10 2023  19 12  -739.580 -678.435 141.247 180.574 240.397
 01 10 2023  19 13  -739.138 -677.437 140.908 180.578 240.453
 01 10 2023  19 14  -738.714 -676.306 140.636 180.578 240.472
 01 10 2023  19 15  -739.860 -677.521 140.647 180.564 240.476
 01 10 2023  19 16  -741.610 -680.512 140.787 180.564 240.507
 01 10 2023  19 17  -741.533 -679.936 140.596 180.567 240.567
 01 10 2023  19 18  -741.568 -679.480 140.467 180.562 240.584
 01 10 2023  19 19  -741.815 -679.229 140.214 180.580 240.574
 01 10 2023  19 20  -742.317 -679.034 139.927 180.540 240.620
 01 10 2023  19 21  -742.694 -678.492 139.610 180.569 240.656
 01 10 2023  19 22  -743.119 -678.262 139.280 180.574 240.648
 01 10 2023  19 23  -743.367 -678.224 138.827 180.563 240.668
 01 10 2023  19 24  -743.420 -677.951 138.481 180.573 240.719
 01 10 2023  19 25  -743.123 -676.436 138.340 180.551 240.706
 01 10 2023  19 26  -746.916 -678.433 138.781 180.558 240.731
 01 10 2023  19 27  -742.633 -676.465 137.990 180.558 240.720
 01 10 2023  19 28  -742.106 -673.461 136.931 180.561 240.770
 01 10 2023  19 29  -743.320 -673.449 136.543 180.561 240.752
 01 10 2023  19 30  -743.235 -672.781 136.075 180.539 240.792
 01 10 2023  19 31  -742.840 -671.736 135.685 180.562 240.783
 01 10 2023  19 32  -743.351 -672.533 135.090 180.565 240.811
 01 10 2023  19 33  -743.607 -673.933 134.480 180.565 240.823
 01 10 2023  19 34  -744.107 -674.448 133.750 180.561 240.851
 01 10 2023  19 35  -744.267 -674.986 133.254 180.551 240.863
 01 10 2023  19 36  -744.203 -675.084 132.664 180.560 240.851
 01 10 2023  19 37  -744.615 -675.646 131.862 180.560 240.877
 01 10 2023  19 38  -744.621 -675.664 131.195 180.550 240.886
 01 10 2023  19 39  -745.080 -675.824 130.742 180.559 240.925
 01 10 2023  19 40  -745.757 -675.516 130.095 180.525 240.924
 01 10 2023  19 41  -745.993 -675.772 129.694 180.555 240.902
 01 10 2023  19 42  -745.884 -675.866 129.113 180.557 240.921
 01 10 2023  19 43  -747.380 -677.135 128.563 180.553 240.949
 01 10 2023  19 44  -748.203 -677.311 127.804 180.550 240.940
 01 10 2023  19 45  -747.630 -677.846 127.310 180.553 240.936
 01 10 2023  19 46  -747.301 -677.814 126.600 180.553 240.982
 01 10 2023  19 47  -747.092 -677.852 126.263 180.551 240.986
 01 10 2023  19 48  -748.320 -678.049 125.746 180.551 241.035
 01 10 2023  19 49  -749.282 -678.761 125.242 180.553 241.009
 01 10 2023  19 50  -750.235 -678.462 124.367 180.548 240.997
 01 10 2023  19 51  -751.241 -679.179 123.599 180.541 241.037
 01 10 2023  19 52  -751.654 -679.306 122.861 180.550 241.053
 01 10 2023  19 53  -751.647 -678.865 122.247 180.551 241.094
 01 10 2023  19 54  -751.937 -678.885 121.764 180.539 241.048
 01 10 2023  19 55  -752.520 -679.583 121.221 180.530 241.070
 01 10 2023  19 56  -753.255 -680.186 120.676 180.539 241.114
 01 10 2023  19 57  -753.783 -681.752 119.952 180.548 241.135
 01 10 2023  19 58  -752.310 -680.770 119.943 180.546 241.128
 01 10 2023  19 59  -750.798 -679.895 119.510 180.543 241.134
 01 10 2023  20 00  -750.399 -679.785 119.087 180.545 241.132
 01 10 2023  20 01  -750.566 -679.769 118.682 180.543 241.165
 01 10 2023  20 02  -750.607 -679.794 118.328 180.535 241.211
 01 10 2023  20 03  -749.452 -678.890 117.973 180.537 241.208
 01 10 2023  20 04  -748.933 -679.333 117.694 180.543 241.218
 01 10 2023  20 05  -749.405 -680.540 117.250 180.513 241.219
 01 10 2023  20 06  -749.499 -680.912 116.687 180.527 241.206
 01 10 2023  20 07  -749.766 -680.996 116.214 180.545 241.258
 01 10 2023  20 08  -750.471 -681.889 115.628 180.540 241.271
 01 10 2023  20 09  -750.607 -681.928 115.037 180.545 241.280
 01 10 2023  20 10  -750.468 -682.501 114.412 180.531 241.326
 01 10 2023  20 11  -750.407 -682.854 113.913 180.539 241.349
 01 10 2023  20 12  -750.375 -683.113 113.342 180.529 241.337
 01 10 2023  20 13  -750.268 -682.945 112.830 180.538 241.371
 01 10 2023  20 14  -750.850 -684.033 112.356 180.533 241.380
 01 10 2023  20 15  -751.326 -684.744 111.692 180.521 241.400
 01 10 2023  20 16  -751.615 -685.075 111.141 180.534 241.404
 01 10 2023  20 17  -751.949 -685.495 110.611 180.531 241.431
 01 10 2023  20 18  -752.920 -686.452 110.071 180.532 241.412
 01 10 2023  20 19  -753.068 -686.920 109.298 180.531 241.460
 01 10 2023  20 20  -752.642 -686.522 108.881 180.519 241.425
 01 10 2023  20 21  -752.597 -687.268 108.288 180.538 241.440
 01 10 2023  20 22  -753.917 -688.096 107.732 180.524 241.442
 01 10 2023  20 23  -754.104 -688.614 107.013 180.527 241.478
 01 10 2023  20 24  -755.739 -689.923 106.373 180.533 241.482
 01 10 2023  20 25  -756.314 -690.286 105.573 180.519 241.525
 01 10 2023  20 26  -757.077 -690.973 104.863 180.523 241.518
 01 10 2023  20 27  -756.743 -690.637 104.195 180.522 241.540
 01 10 2023  20 28  -756.661 -690.561 103.669 180.516 241.553
 01 10 2023  20 29  -755.830 -690.569 103.361 180.528 241.567
 01 10 2023  20 30  -755.942 -690.208 103.049 180.431 241.581
 01 10 2023  20 31  -757.429 -691.898 102.571 180.513 241.596
 01 10 2023  20 32  -758.781 -693.592 101.905 180.521 241.565
 01 10 2023  20 33  -759.672 -694.786 101.096 180.522 241.595
 01 10 2023  20 34  -760.769 -695.903 100.185 180.526 241.614
 01 10 2023  20 35  -761.216 -695.985 099.525 180.502 241.642
 01 10 2023  20 36  -761.912 -696.790 098.862 180.506 241.648
 01 10 2023  20 37  -762.387 -697.802 098.234 180.517 241.666
 01 10 2023  20 38  -764.196 -699.119 097.557 180.506 241.712
 01 10 2023  20 39  -766.327 -701.178 096.706 180.515 241.712
 01 10 2023  20 40  -767.009 -702.116 095.841 180.500 241.726
 01 10 2023  20 41  -766.429 -702.360 095.131 180.500 241.716
 01 10 2023  20 42  -767.509 -703.418 094.607 180.509 241.716
 01 10 2023  20 43  -767.268 -704.128 094.071 180.510 241.726
 01 10 2023  20 44  -768.916 -705.723 093.565 180.503 241.753
 01 10 2023  20 45  -770.431 -707.242 092.784 180.503 241.769
 01 10 2023  20 46  -773.307 -709.124 092.115 180.500 241.779
 01 10 2023  20 47  -773.476 -709.996 091.256 180.501 241.786
 01 10 2023  20 48  -774.226 -710.879 090.643 180.496 241.800
 01 10 2023  20 49  -774.977 -710.958 090.228 180.501 241.812
 01 10 2023  20 50  -776.346 -712.090 089.619 180.491 241.826
 01 10 2023  20 51  -776.840 -713.303 089.036 180.488 241.813
 01 10 2023  20 52  -777.401 -713.594 088.497 180.514 241.850
 01 10 2023  20 53  -777.565 -713.565 088.123 180.495 241.859
 01 10 2023  20 54  -776.292 -712.795 087.969 180.512 241.918
 01 10 2023  20 55  -775.770 -712.610 087.879 180.478 241.912
 01 10 2023  20 56  -774.862 -712.374 087.845 180.492 241.916
 01 10 2023  20 57  -774.805 -712.333 087.781 180.486 241.923
 01 10 2023  20 58  -775.650 -713.131 087.575 180.490 241.969
 01 10 2023  20 59  -776.403 -713.645 087.405 180.495 241.982
 01 10 2023  21 00  -773.398 -710.470 086.792 180.485 241.963
 01 10 2023  21 01  -770.153 -708.359 086.378 180.485 241.957
 01 10 2023  21 02  -769.907 -708.348 086.278 180.488 241.974
 01 10 2023  21 03  -769.941 -708.304 086.216 180.494 241.985
 01 10 2023  21 04  -770.424 -709.166 085.855 180.484 241.976
 01 10 2023  21 05  -770.756 -710.169 085.518 180.486 241.994
 01 10 2023  21 06  -768.758 -710.709 085.200 180.472 242.018
 01 10 2023  21 07  -768.922 -711.502 085.057 180.482 242.003
 01 10 2023  21 08  -770.020 -712.730 084.695 180.476 242.005
 01 10 2023  21 09  -770.218 -713.659 084.228 180.485 241.992
 01 10 2023  21 10  -770.330 -714.299 083.765 180.475 242.014
 01 10 2023  21 11  -769.646 -714.509 083.363 180.477 242.012
 01 10 2023  21 12  -769.212 -715.077 083.076 180.486 242.037
 01 10 2023  21 13  -768.635 -715.434 082.764 180.479 242.052
 01 10 2023  21 14  -768.123 -715.184 082.578 180.477 242.027
 01 10 2023  21 15  -767.860 -715.169 082.329 180.427 242.024
 01 10 2023  21 16  -767.488 -715.046 082.091 180.479 242.032
 01 10 2023  21 17  -767.425 -715.272 081.944 180.468 242.051
 01 10 2023  21 18  -767.497 -718.803 081.540 180.476 242.059
 01 10 2023  21 19  -768.611 -723.126 081.170 180.475 242.058
 01 10 2023  21 20  -769.113 -723.791 080.923 180.457 242.012
 01 10 2023  21 21  -768.542 -723.809 080.799 180.460 242.011
 01 10 2023  21 22  -769.377 -724.171 080.663 180.472 242.041
 01 10 2023  21 23  -769.612 -724.514 080.321 180.472 242.025
 01 10 2023  21 24  -769.774 -724.881 080.095 180.469 242.017
 01 10 2023  21 25  -769.063 -724.841 079.874 180.371 241.980
 01 10 2023  21 26  -768.131 -724.815 079.818 180.460 241.989
 01 10 2023  21 27  -767.283 -724.461 079.811 180.463 241.975
 01 10 2023  21 28  -766.754 -724.414 079.792 180.479 241.988
 01 10 2023  21 29  -766.289 -724.474 079.749 180.459 241.996
 01 10 2023  21 30  -765.707 -724.663 079.586 180.422 241.993
 01 10 2023  21 31  -765.317 -724.751 079.549 180.447 242.035
 01 10 2023  21 32  -764.991 -725.087 079.468 180.458 242.024
 01 10 2023  21 33  -764.763 -725.830 079.300 180.461 242.007
 01 10 2023  21 34  -764.630 -726.758 078.980 180.460 241.989
 01 10 2023  21 35  -764.417 -727.500 078.705 180.464 241.950
 01 10 2023  21 36  -763.760 -727.463 078.478 180.457 241.933
 01 10 2023  21 37  -763.209 -727.483 078.302 180.453 241.923
 01 10 2023  21 38  -762.705 -727.697 078.047 180.452 241.935
 01 10 2023  21 39  -762.060 -727.884 077.878 180.459 241.923
 01 10 2023  21 40  -761.297 -728.170 077.685 180.444 241.894
 01 10 2023  21 41  -760.510 -728.392 077.420 180.442 241.917
 01 10 2023  21 42  -759.801 -728.486 077.308 180.442 241.888
 01 10 2023  21 43  -759.202 -728.742 077.163 180.442 241.868
 01 10 2023  21 44  -758.762 -729.104 076.991 180.445 241.830
 01 10 2023  21 45  -758.700 -729.540 076.777 180.407 241.838
 01 10 2023  21 46  -758.181 -729.841 076.589 180.455 241.843
 01 10 2023  21 47  -757.755 -730.179 076.350 180.435 241.803
 01 10 2023  21 48  -757.672 -730.522 076.092 180.434 241.805
 01 10 2023  21 49  -757.451 -730.935 075.860 180.446 241.773
 01 10 2023  21 50  -757.450 -731.313 075.475 180.418 241.797
 01 10 2023  21 51  -757.330 -731.611 075.210 180.438 241.758
 01 10 2023  21 52  -756.969 -731.893 074.905 180.437 241.744
 01 10 2023  21 53  -756.274 -731.934 074.552 180.442 241.738
 01 10 2023  21 54  -755.996 -732.080 074.425 180.430 241.746
 01 10 2023  21 55  -755.971 -732.470 074.216 180.402 241.719
 01 10 2023  21 56  -755.792 -732.924 073.980 180.430 241.729
 01 10 2023  21 57  -755.764 -733.344 073.758 180.433 241.712
 01 10 2023  21 58  -755.523 -733.714 073.505 180.434 241.691
 01 10 2023  21 59  -755.362 -734.088 073.300 180.433 241.662
 01 10 2023  22 00  -755.511 -734.777 073.032 180.399 241.651
 01 10 2023  22 01  -755.470 -735.477 072.771 180.423 241.636
 01 10 2023  22 02  -755.166 -735.864 072.519 180.429 241.603
 01 10 2023  22 03  -754.632 -736.372 072.402 180.427 241.583
 01 10 2023  22 04  -754.474 -736.940 072.309 180.425 241.567
 01 10 2023  22 05  -753.990 -737.672 072.065 180.403 241.572
 01 10 2023  22 06  -753.802 -738.250 071.942 180.423 241.602
 01 10 2023  22 07  -753.382 -738.774 071.727 180.409 241.558
 01 10 2023  22 08  -753.273 -739.332 071.507 180.415 241.541
 01 10 2023  22 09  -752.694 -739.830 071.334 180.410 241.537
 01 10 2023  22 10  -752.420 -740.343 071.184 180.393 241.530
 01 10 2023  22 11  -752.400 -741.074 071.047 180.409 241.531
 01 10 2023  22 12  -753.052 -742.147 070.822 180.411 241.512
 01 10 2023  22 13  -753.809 -743.620 070.562 180.415 241.484
 01 10 2023  22 14  -754.964 -744.994 070.225 180.414 241.457
 01 10 2023  22 15  -755.873 -746.068 069.772 180.394 241.441
 01 10 2023  22 16  -755.710 -746.910 069.438 180.417 241.448
 01 10 2023  22 17  -755.257 -747.082 069.260 180.408 241.415
 01 10 2023  22 18  -755.082 -747.474 069.160 180.405 241.363
 01 10 2023  22 19  -754.516 -748.336 069.178 180.407 241.383
 01 10 2023  22 20  -754.241 -749.058 069.175 180.401 241.361
 01 10 2023  22 21  -754.444 -749.909 069.206 180.404 241.336
 01 10 2023  22 22  -754.929 -750.612 069.094 180.404 241.348
 01 10 2023  22 23  -754.895 -751.168 069.041 180.401 241.337
 01 10 2023  22 24  -755.173 -751.644 069.028 180.397 241.312
 01 10 2023  22 25  -755.386 -752.039 068.996 180.325 241.358
 01 10 2023  22 26  -755.241 -752.037 069.136 180.387 241.347
 01 10 2023  22 27  -755.342 -752.401 069.206 180.397 241.336
 01 10 2023  22 28  -755.107 -752.638 069.354 180.397 241.311
 01 10 2023  22 29  -754.776 -752.946 069.481 180.393 241.308
 01 10 2023  22 30  -754.351 -753.545 069.660 180.387 241.290
 01 10 2023  22 31  -753.870 -753.438 069.908 180.388 241.271
 01 10 2023  22 32  -753.448 -753.389 070.162 180.399 241.276
 01 10 2023  22 33  -753.040 -753.561 070.481 180.389 241.256
 01 10 2023  22 34  -752.771 -753.622 070.791 180.383 241.231
 01 10 2023  22 35  -752.579 -753.851 071.229 180.382 241.226
 01 10 2023  22 36  -752.669 -754.010 071.499 180.378 241.173
 01 10 2023  22 37  -752.690 -754.093 071.777 180.382 241.208
 01 10 2023  22 38  -752.663 -754.256 072.115 180.376 241.192
 01 10 2023  22 39  -752.313 -754.104 072.496 180.387 241.174
 01 10 2023  22 40  -752.329 -753.988 072.819 180.389 241.134
 01 10 2023  22 41  -752.684 -754.061 073.217 180.374 241.136
 01 10 2023  22 42  -752.882 -754.089 073.512 180.376 241.123
 01 10 2023  22 43  -752.861 -753.967 073.904 180.378 241.119
 01 10 2023  22 44  -752.816 -753.895 074.298 180.382 241.098
 01 10 2023  22 45  -752.791 -753.745 074.598 180.365 241.069
 01 10 2023  22 46  -752.519 -753.629 074.996 180.363 241.048
 01 10 2023  22 47  -752.239 -753.141 075.391 180.371 241.016
 01 10 2023  22 48  -751.843 -752.843 075.778 180.362 240.958
 01 10 2023  22 49  -751.743 -752.672 076.197 180.368 240.900
 01 10 2023  22 50  -751.564 -752.337 076.589 180.328 240.890
 01 10 2023  22 51  -751.269 -752.091 077.016 180.362 240.951
 01 10 2023  22 52  -751.033 -751.849 077.381 180.365 240.914
 01 10 2023  22 53  -750.462 -751.609 077.732 180.361 240.863
 01 10 2023  22 54  -749.731 -751.398 078.026 180.366 240.840
 01 10 2023  22 55  -749.081 -751.240 078.424 180.354 240.838
 01 10 2023  22 56  -748.454 -750.718 078.764 180.367 240.808
 01 10 2023  22 57  -747.838 -750.581 079.160 180.354 240.792
 01 10 2023  22 58  -747.372 -750.361 079.485 180.342 240.737
 01 10 2023  22 59  -746.809 -750.329 079.773 180.358 240.707
 01 10 2023  23 00  -746.588 -750.195 080.027 180.325 240.692
 01 10 2023  23 01  -746.651 -750.190 080.315 180.347 240.667
 01 10 2023  23 02  -746.705 -749.983 080.552 180.347 240.667
 01 10 2023  23 03  -746.736 -749.939 080.776 180.332 240.632
 01 10 2023  23 04  -746.598 -749.776 080.951 180.344 240.576
 01 10 2023  23 05  -746.582 -749.595 081.146 180.280 240.528
 01 10 2023  23 06  -746.596 -749.418 081.390 180.342 240.496
 01 10 2023  23 07  -746.415 -749.312 081.625 180.340 240.484
 01 10 2023  23 08  -746.488 -749.226 081.881 180.345 240.472
 01 10 2023  23 09  -746.487 -749.102 082.127 180.332 240.392
 01 10 2023  23 10  -746.597 -748.955 082.276 180.310 240.369
 01 10 2023  23 11  -746.410 -748.779 082.529 180.333 240.343
 01 10 2023  23 12  -746.421 -748.744 082.788 180.335 240.329
 01 10 2023  23 13  -746.244 -748.616 082.943 180.339 240.284
 01 10 2023  23 14  -746.122 -748.345 083.060 180.321 240.213
 01 10 2023  23 15  -745.848 -748.218 083.276 180.311 240.214
 01 10 2023  23 16  -745.865 -748.000 083.484 180.326 240.161
 01 10 2023  23 17  -745.622 -747.712 083.573 180.323 240.127
 01 10 2023  23 18  -745.339 -747.452 083.723 180.322 240.094
 01 10 2023  23 19  -745.413 -747.394 083.821 180.319 240.067
 01 10 2023  23 20  -745.141 -746.996 083.945 180.299 239.975
 01 10 2023  23 21  -744.898 -746.699 084.023 180.319 239.950
 01 10 2023  23 22  -744.755 -746.549 084.138 180.318 239.949
 01 10 2023  23 23  -744.565 -746.233 084.268 180.316 239.899
 01 10 2023  23 24  -744.092 -746.146 084.352 180.323 239.817
 01 10 2023  23 25  -743.672 -745.912 084.387 180.223 239.767
 01 10 2023  23 26  -743.282 -745.816 084.557 180.309 239.760
 01 10 2023  23 27  -743.208 -745.732 084.599 180.311 239.702
 01 10 2023  23 28  -743.354 -745.819 084.724 180.310 239.612
 01 10 2023  23 29  -743.800 -746.036 084.692 180.307 239.591
 01 10 2023  23 30  -743.883 -746.269 084.577 180.305 239.539
 01 10 2023  23 31  -744.107 -746.567 084.451 180.304 239.484
 01 10 2023  23 32  -744.524 -746.784 084.335 180.311 239.453
 01 10 2023  23 33  -744.613 -746.737 084.196 180.306 239.435
 01 10 2023  23 34  -744.514 -746.640 084.169 180.303 239.386
 01 10 2023  23 35  -744.376 -746.477 084.115 180.291 239.333
 01 10 2023  23 36  -743.925 -746.260 084.134 180.288 239.264
 01 10 2023  23 37  -743.884 -746.262 084.094 180.305 239.235
 01 10 2023  23 38  -744.176 -746.474 084.032 180.298 239.210
 01 10 2023  23 39  -744.426 -746.575 083.913 180.288 239.124
 01 10 2023  23 40  -744.582 -746.711 083.702 180.253 239.063
 01 10 2023  23 41  -744.579 -746.792 083.674 180.286 239.045
 01 10 2023  23 42  -744.366 -746.819 083.601 180.288 238.994
 01 10 2023  23 43  -743.914 -746.816 083.536 180.286 238.920
 01 10 2023  23 44  -743.457 -746.860 083.554 180.284 238.870
 01 10 2023  23 45  -743.441 -746.966 083.472 180.279 238.815
 01 10 2023  23 46  -743.451 -747.247 083.412 180.272 238.774
 01 10 2023  23 47  -743.361 -747.487 083.314 180.282 238.733
 01 10 2023  23 48  -743.369 -747.804 083.258 180.284 238.661
 01 10 2023  23 49  -743.485 -748.004 083.077 180.278 238.576
 01 10 2023  23 50  -743.116 -748.017 082.953 180.231 238.535
 01 10 2023  23 51  -743.450 -748.169 082.868 180.271 238.473
 01 10 2023  23 52  -743.887 -748.378 082.709 180.269 238.423
 01 10 2023  23 53  -744.192 -748.599 082.513 180.266 238.331
 01 10 2023  23 54  -744.843 -749.127 082.268 180.274 238.293
 01 10 2023  23 55  -745.357 -749.328 082.057 180.245 238.260
 01 10 2023  23 56  -745.006 -749.223 081.885 180.255 238.182
 01 10 2023  23 57  -744.347 -749.336 081.763 180.256 238.135
 01 10 2023  23 58  -743.752 -749.506 081.754 180.258 238.073
 01 10 2023  23 59  -743.848 -749.958 081.720 180.266 237.999
