CHILLAN EMBRACE-14 <275> 1 Min. Reported data

 DD MM YYYY  HH MM   D(Deg)  H(nT)   Z(nT)   I(Deg)   F(nT)

 02 10 2023  00 00  03.9726 19203.3 -14988.1 -37.9718 24360.0
 02 10 2023  00 01  03.9722 19203.2 -14988.1 -37.9721 24359.9
 02 10 2023  00 02  03.9721 19203.1 -14988.2 -37.9724 24359.9
 02 10 2023  00 03  03.9719 19202.9 -14988.2 -37.9727 24359.8
 02 10 2023  00 04  03.9718 19202.7 -14988.3 -37.9731 24359.6
 02 10 2023  00 05  03.9715 19202.5 -14988.4 -37.9735 24359.5
 02 10 2023  00 06  03.9713 19202.3 -14988.4 -37.9739 24359.4
 02 10 2023  00 07  03.9711 19202.0 -14988.5 -37.9744 24359.2
 02 10 2023  00 08  03.9710 19201.8 -14988.5 -37.9748 24359.1
 02 10 2023  00 09  03.9709 19201.5 -14988.6 -37.9753 24358.9
 02 10 2023  00 10  03.9708 19201.2 -14988.6 -37.9758 24358.7
 02 10 2023  00 11  03.9707 19201.0 -14988.7 -37.9763 24358.5
 02 10 2023  00 12  03.9707 19200.8 -14988.7 -37.9766 24358.4
 02 10 2023  00 13  03.9707 19200.7 -14988.8 -37.9769 24358.4
 02 10 2023  00 14  03.9706 19200.6 -14988.8 -37.9771 24358.3
 02 10 2023  00 15  03.9705 19200.4 -14988.9 -37.9774 24358.2
 02 10 2023  00 16  03.9706 19200.3 -14988.9 -37.9777 24358.1
 02 10 2023  00 17  03.9706 19200.1 -14988.9 -37.9779 24358.0
 02 10 2023  00 18  03.9704 19199.8 -14989.0 -37.9785 24357.8
 02 10 2023  00 19  03.9705 19199.7 -14989.0 -37.9788 24357.7
 02 10 2023  00 20  03.9705 19199.6 -14989.1 -37.9790 24357.7
 02 10 2023  00 21  03.9704 19199.5 -14989.1 -37.9791 24357.6
 02 10 2023  00 22  03.9704 19199.3 -14989.1 -37.9795 24357.5
 02 10 2023  00 23  03.9704 19199.2 -14989.2 -37.9797 24357.5
 02 10 2023  00 24  03.9703 19199.0 -14989.2 -37.9801 24357.3
 02 10 2023  00 25  03.9704 19198.9 -14989.3 -37.9804 24357.3
 02 10 2023  00 26  03.9706 19198.8 -14989.3 -37.9805 24357.2
 02 10 2023  00 27  03.9706 19198.8 -14989.3 -37.9806 24357.2
 02 10 2023  00 28  03.9708 19198.9 -14989.4 -37.9806 24357.3
 02 10 2023  00 29  03.9709 19198.7 -14989.4 -37.9809 24357.2
 02 10 2023  00 30  03.9708 19198.5 -14989.4 -37.9812 24357.1
 02 10 2023  00 31  03.9707 19198.3 -14989.4 -37.9815 24356.9
 02 10 2023  00 32  03.9708 19198.2 -14989.5 -37.9817 24356.8
 02 10 2023  00 33  03.9705 19198.1 -14989.5 -37.9819 24356.8
 02 10 2023  00 34  03.9704 19198.1 -14989.5 -37.9819 24356.8
 02 10 2023  00 35  03.9702 19197.9 -14989.6 -37.9823 24356.7
 02 10 2023  00 36  03.9703 19198.0 -14989.6 -37.9822 24356.8
 02 10 2023  00 37  03.9702 19197.9 -14989.6 -37.9824 24356.7
 02 10 2023  00 38  03.9703 19197.9 -14989.7 -37.9825 24356.7
 02 10 2023  00 39  03.9704 19197.8 -14989.7 -37.9827 24356.7
 02 10 2023  00 40  03.9704 19197.8 -14989.7 -37.9828 24356.7
 02 10 2023  00 41  03.9703 19197.8 -14989.7 -37.9828 24356.6
 02 10 2023  00 42  03.9702 19197.6 -14989.8 -37.9832 24356.5
 02 10 2023  00 43  03.9701 19197.3 -14989.8 -37.9836 24356.4
 02 10 2023  00 44  03.9701 19197.4 -14989.9 -37.9837 24356.4
 02 10 2023  00 45  03.9700 19197.2 -14989.9 -37.9840 24356.3
 02 10 2023  00 46  03.9700 19197.1 -14989.9 -37.9841 24356.2
 02 10 2023  00 47  03.9697 19197.0 -14990.0 -37.9844 24356.2
 02 10 2023  00 48  03.9694 19196.9 -14990.0 -37.9846 24356.1
 02 10 2023  00 49  03.9693 19196.7 -14990.0 -37.9849 24356.0
 02 10 2023  00 50  03.9686 19196.4 -14990.1 -37.9855 24355.8
 02 10 2023  00 51  03.9685 19196.1 -14990.1 -37.9860 24355.6
 02 10 2023  00 52  03.9678 19196.0 -14990.2 -37.9863 24355.6
 02 10 2023  00 53  03.9671 19195.8 -14990.3 -37.9868 24355.4
 02 10 2023  00 54  03.9662 19195.5 -14990.4 -37.9873 24355.3
 02 10 2023  00 55  03.9659 19195.1 -14990.4 -37.9880 24355.0
 02 10 2023  00 56  03.9648 19194.7 -14990.5 -37.9887 24354.8
 02 10 2023  00 57  03.9643 19193.5 -14990.6 -37.9907 24353.8
 02 10 2023  00 58  03.9642 19193.4 -14990.8 -37.9912 24353.8
 02 10 2023  00 59  03.9640 19193.6 -14990.9 -37.9910 24354.1
 02 10 2023  01 00  03.9633 19193.2 -14990.9 -37.9917 24353.8
 02 10 2023  01 01  03.9628 19192.7 -14991.0 -37.9924 24353.4
 02 10 2023  01 02  03.9631 19192.6 -14991.1 -37.9928 24353.4
 02 10 2023  01 03  03.9628 19192.1 -14991.1 -37.9936 24353.0
 02 10 2023  01 04  03.9623 19191.7 -14991.2 -37.9944 24352.7
 02 10 2023  01 05  03.9618 19191.3 -14991.2 -37.9950 24352.5
 02 10 2023  01 06  03.9616 19191.1 -14991.3 -37.9954 24352.3
 02 10 2023  01 07  03.9613 19191.1 -14991.4 -37.9955 24352.4
 02 10 2023  01 08  03.9606 19190.8 -14991.4 -37.9960 24352.2
 02 10 2023  01 09  03.9602 19190.5 -14991.5 -37.9965 24352.0
 02 10 2023  01 10  03.9600 19190.4 -14991.6 -37.9969 24352.0
 02 10 2023  01 11  03.9597 19190.3 -14991.6 -37.9972 24351.9
 02 10 2023  01 12  03.9597 19190.2 -14991.7 -37.9974 24351.9
 02 10 2023  01 13  03.9594 19190.0 -14991.8 -37.9979 24351.8
 02 10 2023  01 14  03.9593 19189.9 -14991.8 -37.9981 24351.7
 02 10 2023  01 15  03.9588 19189.6 -14991.9 -37.9986 24351.5
 02 10 2023  01 16  03.9579 19189.4 -14991.9 -37.9990 24351.4
 02 10 2023  01 17  03.9579 19189.5 -14992.0 -37.9991 24351.5
 02 10 2023  01 18  03.9573 19189.3 -14992.1 -37.9994 24351.4
 02 10 2023  01 19  03.9572 19189.4 -14992.1 -37.9994 24351.5
 02 10 2023  01 20  03.9570 19189.4 -14992.2 -37.9995 24351.5
 02 10 2023  01 21  03.9573 19189.2 -14992.2 -37.9998 24351.5
 02 10 2023  01 22  03.9571 19189.0 -14992.2 -38.0002 24351.3
 02 10 2023  01 23  03.9572 19189.0 -14992.3 -38.0003 24351.3
 02 10 2023  01 24  03.9572 19189.0 -14992.3 -38.0003 24351.3
 02 10 2023  01 25  03.9573 19189.0 -14992.3 -38.0003 24351.3
 02 10 2023  01 26  03.9575 19189.0 -14992.3 -38.0003 24351.3
 02 10 2023  01 27  03.9576 19188.8 -14992.4 -38.0007 24351.2
 02 10 2023  01 28  03.9578 19188.8 -14992.4 -38.0008 24351.2
 02 10 2023  01 29  03.9579 19188.7 -14992.4 -38.0009 24351.1
 02 10 2023  01 30  03.9580 19188.3 -14992.4 -38.0015 24350.8
 02 10 2023  01 31  03.9581 19187.7 -14992.4 -38.0023 24350.4
 02 10 2023  01 32  03.9582 19187.3 -14992.4 -38.0029 24350.1
 02 10 2023  01 33  03.9586 19187.1 -14992.4 -38.0032 24349.9
 02 10 2023  01 34  03.9589 19186.7 -14992.4 -38.0038 24349.6
 02 10 2023  01 35  03.9588 19186.4 -14992.4 -38.0042 24349.3
 02 10 2023  01 36  03.9587 19186.0 -14992.4 -38.0048 24349.0
 02 10 2023  01 37  03.9587 19185.5 -14992.4 -38.0055 24348.7
 02 10 2023  01 38  03.9589 19185.2 -14992.4 -38.0060 24348.4
 02 10 2023  01 39  03.9584 19184.8 -14992.4 -38.0066 24348.0
 02 10 2023  01 40  03.9573 19184.2 -14992.5 -38.0076 24347.6
 02 10 2023  01 41  03.9576 19184.2 -14992.5 -38.0076 24347.7
 02 10 2023  01 42  03.9574 19183.7 -14992.5 -38.0084 24347.2
 02 10 2023  01 43  03.9580 19183.7 -14992.5 -38.0084 24347.3
 02 10 2023  01 44  03.9578 19183.3 -14992.5 -38.0090 24346.9
 02 10 2023  01 45  03.9573 19182.9 -14992.5 -38.0095 24346.7
 02 10 2023  01 46  03.9571 19182.8 -14992.6 -38.0098 24346.6
 02 10 2023  01 47  03.9565 19182.4 -14992.6 -38.0104 24346.3
 02 10 2023  01 48  03.9563 19182.3 -14992.7 -38.0107 24346.2
 02 10 2023  01 49  03.9561 19182.2 -14992.7 -38.0109 24346.2
 02 10 2023  01 50  03.9559 19182.0 -14992.7 -38.0112 24346.0
 02 10 2023  01 51  03.9561 19181.7 -14992.7 -38.0117 24345.9
 02 10 2023  01 52  03.9563 19181.4 -14992.8 -38.0121 24345.6
 02 10 2023  01 53  03.9565 19181.1 -14992.8 -38.0126 24345.4
 02 10 2023  01 54  03.9565 19180.9 -14992.8 -38.0129 24345.2
 02 10 2023  01 55  03.9564 19180.6 -14992.8 -38.0134 24345.0
 02 10 2023  01 56  03.9563 19180.4 -14992.8 -38.0136 24344.9
 02 10 2023  01 57  03.9565 19180.3 -14992.8 -38.0138 24344.8
 02 10 2023  01 58  03.9565 19180.2 -14992.8 -38.0140 24344.7
 02 10 2023  01 59  03.9567 19180.3 -14992.8 -38.0139 24344.8
 02 10 2023  02 00  03.9564 19180.3 -14992.8 -38.0139 24344.8
 02 10 2023  02 01  03.9562 19180.3 -14992.8 -38.0138 24344.8
 02 10 2023  02 02  03.9560 19180.3 -14992.8 -38.0139 24344.8
 02 10 2023  02 03  03.9558 19180.2 -14992.9 -38.0140 24344.7
 02 10 2023  02 04  03.9555 19180.1 -14992.9 -38.0142 24344.7
 02 10 2023  02 05  03.9554 19180.0 -14992.9 -38.0145 24344.6
 02 10 2023  02 06  03.9555 19180.1 -14992.9 -38.0143 24344.7
 02 10 2023  02 07  03.9555 19180.2 -14993.0 -38.0142 24344.8
 02 10 2023  02 08  03.9558 19180.4 -14993.0 -38.0140 24344.9
 02 10 2023  02 09  03.9563 19180.5 -14992.9 -38.0138 24345.0
 02 10 2023  02 10  03.9565 19180.6 -14992.9 -38.0136 24345.1
 02 10 2023  02 11  03.9570 19180.7 -14992.9 -38.0134 24345.2
 02 10 2023  02 12  03.9573 19180.9 -14992.9 -38.0131 24345.3
 02 10 2023  02 13  03.9574 19181.1 -14992.8 -38.0128 24345.4
 02 10 2023  02 14  03.9571 19181.1 -14992.8 -38.0127 24345.4
 02 10 2023  02 15  03.9569 19181.3 -14992.8 -38.0125 24345.5
 02 10 2023  02 16  03.9568 19181.3 -14992.8 -38.0124 24345.6
 02 10 2023  02 17  03.9570 19181.6 -14992.8 -38.0120 24345.8
 02 10 2023  02 18  03.9571 19181.6 -14992.8 -38.0119 24345.8
 02 10 2023  02 19  03.9573 19181.7 -14992.8 -38.0118 24345.9
 02 10 2023  02 20  03.9574 19181.8 -14992.8 -38.0117 24345.9
 02 10 2023  02 21  03.9577 19181.9 -14992.8 -38.0115 24346.0
 02 10 2023  02 22  03.9576 19182.0 -14992.8 -38.0113 24346.1
 02 10 2023  02 23  03.9575 19181.9 -14992.7 -38.0114 24346.0
 02 10 2023  02 24  03.9574 19181.8 -14992.7 -38.0116 24345.9
 02 10 2023  02 25  03.9576 19181.9 -14992.8 -38.0115 24346.0
 02 10 2023  02 26  03.9577 19182.0 -14992.8 -38.0113 24346.1
 02 10 2023  02 27  03.9575 19182.0 -14992.8 -38.0113 24346.1
 02 10 2023  02 28  03.9577 19182.2 -14992.8 -38.0109 24346.3
 02 10 2023  02 29  03.9575 19182.2 -14992.7 -38.0110 24346.2
 02 10 2023  02 30  03.9574 19182.2 -14992.8 -38.0111 24346.2
 02 10 2023  02 31  03.9573 19182.1 -14992.7 -38.0112 24346.1
 02 10 2023  02 32  03.9575 19182.4 -14992.7 -38.0107 24346.4
 02 10 2023  02 33  03.9589 19183.2 -14992.6 -38.0094 24346.9
 02 10 2023  02 34  03.9581 19182.8 -14992.6 -38.0098 24346.6
 02 10 2023  02 35  03.9587 19182.9 -14992.5 -38.0096 24346.6
 02 10 2023  02 36  03.9584 19182.8 -14992.5 -38.0096 24346.6
 02 10 2023  02 37  03.9584 19182.7 -14992.4 -38.0097 24346.4
 02 10 2023  02 38  03.9582 19182.6 -14992.4 -38.0098 24346.3
 02 10 2023  02 39  03.9581 19182.6 -14992.4 -38.0098 24346.3
 02 10 2023  02 40  03.9578 19182.5 -14992.4 -38.0099 24346.3
 02 10 2023  02 41  03.9574 19182.5 -14992.4 -38.0098 24346.3
 02 10 2023  02 42  03.9574 19182.5 -14992.4 -38.0098 24346.3
 02 10 2023  02 43  03.9575 19182.6 -14992.3 -38.0096 24346.3
 02 10 2023  02 44  03.9575 19182.7 -14992.3 -38.0094 24346.4
 02 10 2023  02 45  03.9581 19183.1 -14992.2 -38.0087 24346.7
 02 10 2023  02 46  03.9582 19183.5 -14992.2 -38.0081 24346.9
 02 10 2023  02 47  03.9582 19183.4 -14992.1 -38.0080 24346.8
 02 10 2023  02 48  03.9583 19184.1 -14992.0 -38.0069 24347.3
 02 10 2023  02 49  03.9586 19184.7 -14991.9 -38.0059 24347.7
 02 10 2023  02 50  03.9597 19186.1 -14991.8 -38.0036 24348.7
 02 10 2023  02 51  03.9602 19186.8 -14991.6 -38.0022 24349.2
 02 10 2023  02 52  03.9606 19187.7 -14991.5 -38.0007 24349.7
 02 10 2023  02 53  03.9592 19188.2 -14991.3 -37.9997 24350.1
 02 10 2023  02 54  03.9590 19189.1 -14991.3 -37.9983 24350.7
 02 10 2023  02 55  03.9576 19189.8 -14991.2 -37.9971 24351.3
 02 10 2023  02 56  03.9567 19190.6 -14991.2 -37.9959 24351.9
 02 10 2023  02 57  03.9555 19191.2 -14991.1 -37.9950 24352.3
 02 10 2023  02 58  03.9544 19191.7 -14991.1 -37.9942 24352.7
 02 10 2023  02 59  03.9532 19192.6 -14991.1 -37.9929 24353.4
 02 10 2023  03 00  03.9519 19193.3 -14991.1 -37.9919 24354.0
 02 10 2023  03 01  03.9517 19194.9 -14991.1 -37.9895 24355.3
 02 10 2023  03 02  03.9509 19196.3 -14991.1 -37.9874 24356.3
 02 10 2023  03 03  03.9513 19197.7 -14991.0 -37.9853 24357.4
 02 10 2023  03 04  03.9512 19198.8 -14990.9 -37.9835 24358.2
 02 10 2023  03 05  03.9511 19199.7 -14990.8 -37.9820 24358.8
 02 10 2023  03 06  03.9513 19200.8 -14990.7 -37.9803 24359.6
 02 10 2023  03 07  03.9514 19201.5 -14990.6 -37.9791 24360.1
 02 10 2023  03 08  03.9519 19202.1 -14990.5 -37.9781 24360.6
 02 10 2023  03 09  03.9527 19202.6 -14990.4 -37.9771 24360.9
 02 10 2023  03 10  03.9535 19203.0 -14990.3 -37.9763 24361.2
 02 10 2023  03 11  03.9545 19203.4 -14990.2 -37.9754 24361.4
 02 10 2023  03 12  03.9552 19204.0 -14990.0 -37.9743 24361.7
 02 10 2023  03 13  03.9553 19204.7 -14989.8 -37.9731 24362.1
 02 10 2023  03 14  03.9556 19205.2 -14989.7 -37.9720 24362.4
 02 10 2023  03 15  03.9555 19205.6 -14989.5 -37.9711 24362.6
 02 10 2023  03 16  03.9558 19206.2 -14989.4 -37.9699 24363.1
 02 10 2023  03 17  03.9555 19206.1 -14989.2 -37.9698 24362.9
 02 10 2023  03 18  03.9553 19206.3 -14989.1 -37.9694 24363.0
 02 10 2023  03 19  03.9551 19206.2 -14989.0 -37.9693 24362.9
 02 10 2023  03 20  03.9549 19206.0 -14989.0 -37.9695 24362.7
 02 10 2023  03 21  03.9545 19205.8 -14988.9 -37.9697 24362.5
 02 10 2023  03 22  03.9540 19205.6 -14988.9 -37.9700 24362.3
 02 10 2023  03 23  03.9539 19205.5 -14988.9 -37.9701 24362.2
 02 10 2023  03 24  03.9537 19205.0 -14988.8 -37.9707 24361.8
 02 10 2023  03 25  03.9537 19204.6 -14988.8 -37.9713 24361.5
 02 10 2023  03 26  03.9540 19204.9 -14988.8 -37.9707 24361.7
 02 10 2023  03 27  03.9537 19204.2 -14988.7 -37.9717 24361.1
 02 10 2023  03 28  03.9535 19204.2 -14988.7 -37.9717 24361.1
 02 10 2023  03 29  03.9529 19204.2 -14988.8 -37.9717 24361.1
 02 10 2023  03 30  03.9522 19203.9 -14988.8 -37.9722 24360.9
 02 10 2023  03 31  03.9519 19203.6 -14988.8 -37.9726 24360.7
 02 10 2023  03 32  03.9518 19203.4 -14988.8 -37.9731 24360.5
 02 10 2023  03 33  03.9519 19203.1 -14988.9 -37.9735 24360.3
 02 10 2023  03 34  03.9518 19202.9 -14988.9 -37.9738 24360.2
 02 10 2023  03 35  03.9520 19202.7 -14988.9 -37.9741 24360.0
 02 10 2023  03 36  03.9518 19202.5 -14988.9 -37.9745 24359.8
 02 10 2023  03 37  03.9517 19202.2 -14988.9 -37.9749 24359.6
 02 10 2023  03 38  03.9515 19201.9 -14988.9 -37.9753 24359.4
 02 10 2023  03 39  03.9511 19201.6 -14988.9 -37.9758 24359.2
 02 10 2023  03 40  03.9509 19201.4 -14989.0 -37.9762 24359.1
 02 10 2023  03 41  03.9507 19201.4 -14989.0 -37.9762 24359.1
 02 10 2023  03 42  03.9504 19201.2 -14989.0 -37.9766 24358.9
 02 10 2023  03 43  03.9499 19200.8 -14989.1 -37.9772 24358.7
 02 10 2023  03 44  03.9494 19200.5 -14989.1 -37.9778 24358.5
 02 10 2023  03 45  03.9490 19200.2 -14989.2 -37.9784 24358.2
 02 10 2023  03 46  03.9487 19199.8 -14989.3 -37.9791 24357.9
 02 10 2023  03 47  03.9487 19199.4 -14989.3 -37.9798 24357.7
 02 10 2023  03 48  03.9486 19199.0 -14989.4 -37.9805 24357.4
 02 10 2023  03 49  03.9486 19198.6 -14989.5 -37.9811 24357.2
 02 10 2023  03 50  03.9484 19198.4 -14989.5 -37.9816 24357.0
 02 10 2023  03 51  03.9483 19198.2 -14989.5 -37.9819 24356.8
 02 10 2023  03 52  03.9481 19198.1 -14989.6 -37.9821 24356.8
 02 10 2023  03 53  03.9479 19198.0 -14989.6 -37.9822 24356.8
 02 10 2023  03 54  03.9479 19198.0 -14989.6 -37.9823 24356.8
 02 10 2023  03 55  03.9480 19198.2 -14989.7 -37.9821 24357.0
 02 10 2023  03 56  03.9479 19198.8 -14989.7 -37.9812 24357.5
 02 10 2023  03 57  03.9477 19199.4 -14989.7 -37.9804 24357.9
 02 10 2023  03 58  03.9475 19199.9 -14989.7 -37.9797 24358.3
 02 10 2023  03 59  03.9472 19200.2 -14989.7 -37.9793 24358.6
 02 10 2023  04 00  03.9469 19200.4 -14989.7 -37.9790 24358.7
 02 10 2023  04 01  03.9469 19200.6 -14989.7 -37.9787 24358.9
 02 10 2023  04 02  03.9471 19200.6 -14989.8 -37.9788 24358.9
 02 10 2023  04 03  03.9473 19200.2 -14989.8 -37.9794 24358.5
 02 10 2023  04 04  03.9477 19199.6 -14989.8 -37.9803 24358.1
 02 10 2023  04 05  03.9480 19199.0 -14989.8 -37.9812 24357.6
 02 10 2023  04 06  03.9483 19198.4 -14989.8 -37.9820 24357.2
 02 10 2023  04 07  03.9483 19197.9 -14989.8 -37.9829 24356.8
 02 10 2023  04 08  03.9483 19197.4 -14989.8 -37.9836 24356.4
 02 10 2023  04 09  03.9483 19197.2 -14989.9 -37.9839 24356.3
 02 10 2023  04 10  03.9483 19196.9 -14989.9 -37.9843 24356.1
 02 10 2023  04 11  03.9483 19196.8 -14989.9 -37.9846 24356.0
 02 10 2023  04 12  03.9483 19196.7 -14989.9 -37.9848 24355.9
 02 10 2023  04 13  03.9482 19196.7 -14990.0 -37.9849 24355.9
 02 10 2023  04 14  03.9480 19196.7 -14990.0 -37.9850 24355.9
 02 10 2023  04 15  03.9479 19196.4 -14990.0 -37.9853 24355.8
 02 10 2023  04 16  03.9478 19196.3 -14990.1 -37.9856 24355.7
 02 10 2023  04 17  03.9477 19196.0 -14990.1 -37.9860 24355.5
 02 10 2023  04 18  03.9474 19195.8 -14990.1 -37.9864 24355.3
 02 10 2023  04 19  03.9471 19195.6 -14990.1 -37.9867 24355.2
 02 10 2023  04 20  03.9468 19195.3 -14990.2 -37.9873 24355.0
 02 10 2023  04 21  03.9467 19194.9 -14990.2 -37.9879 24354.7
 02 10 2023  04 22  03.9466 19194.7 -14990.2 -37.9882 24354.6
 02 10 2023  04 23  03.9467 19194.7 -14990.3 -37.9884 24354.6
 02 10 2023  04 24  03.9465 19194.6 -14990.3 -37.9886 24354.5
 02 10 2023  04 25  03.9462 19194.4 -14990.4 -37.9890 24354.3
 02 10 2023  04 26  03.9462 19194.1 -14990.4 -37.9893 24354.2
 02 10 2023  04 27  03.9461 19194.0 -14990.4 -37.9896 24354.1
 02 10 2023  04 28  03.9460 19193.9 -14990.4 -37.9898 24354.0
 02 10 2023  04 29  03.9459 19193.8 -14990.5 -37.9900 24354.0
 02 10 2023  04 30  03.9458 19193.8 -14990.5 -37.9901 24354.0
 02 10 2023  04 31  03.9455 19193.6 -14990.5 -37.9903 24353.9
 02 10 2023  04 32  03.9453 19193.5 -14990.6 -37.9906 24353.8
 02 10 2023  04 33  03.9452 19193.4 -14990.6 -37.9907 24353.8
 02 10 2023  04 34  03.9452 19193.5 -14990.6 -37.9908 24353.8
 02 10 2023  04 35  03.9451 19193.4 -14990.7 -37.9909 24353.8
 02 10 2023  04 36  03.9451 19193.4 -14990.7 -37.9909 24353.8
 02 10 2023  04 37  03.9451 19193.3 -14990.7 -37.9912 24353.7
 02 10 2023  04 38  03.9451 19193.3 -14990.7 -37.9913 24353.7
 02 10 2023  04 39  03.9450 19193.2 -14990.8 -37.9913 24353.7
 02 10 2023  04 40  03.9448 19193.1 -14990.8 -37.9916 24353.6
 02 10 2023  04 41  03.9448 19193.1 -14990.8 -37.9917 24353.6
 02 10 2023  04 42  03.9448 19193.3 -14990.9 -37.9915 24353.8
 02 10 2023  04 43  03.9449 19193.3 -14990.9 -37.9914 24353.8
 02 10 2023  04 44  03.9448 19193.3 -14990.9 -37.9914 24353.9
 02 10 2023  04 45  03.9451 19193.5 -14990.9 -37.9912 24354.0
 02 10 2023  04 46  03.9452 19193.5 -14990.9 -37.9912 24354.0
 02 10 2023  04 47  03.9453 19193.4 -14990.9 -37.9913 24354.0
 02 10 2023  04 48  03.9452 19193.2 -14990.9 -37.9917 24353.8
 02 10 2023  04 49  03.9451 19193.1 -14991.0 -37.9920 24353.7
 02 10 2023  04 50  03.9451 19193.0 -14991.0 -37.9922 24353.6
 02 10 2023  04 51  03.9453 19192.7 -14991.0 -37.9926 24353.5
 02 10 2023  04 52  03.9456 19192.5 -14991.1 -37.9929 24353.3
 02 10 2023  04 53  03.9459 19192.4 -14991.1 -37.9931 24353.2
 02 10 2023  04 54  03.9460 19192.3 -14991.1 -37.9933 24353.2
 02 10 2023  04 55  03.9458 19192.1 -14991.1 -37.9936 24353.0
 02 10 2023  04 56  03.9455 19191.6 -14991.1 -37.9943 24352.7
 02 10 2023  04 57  03.9455 19191.6 -14991.2 -37.9944 24352.7
 02 10 2023  04 58  03.9453 19191.5 -14991.2 -37.9946 24352.6
 02 10 2023  04 59  03.9453 19191.5 -14991.2 -37.9947 24352.6
 02 10 2023  05 00  03.9452 19191.5 -14991.2 -37.9947 24352.6
 02 10 2023  05 01  03.9451 19191.4 -14991.3 -37.9949 24352.6
 02 10 2023  05 02  03.9452 19191.5 -14991.3 -37.9949 24352.6
 02 10 2023  05 03  03.9452 19191.6 -14991.3 -37.9947 24352.8
 02 10 2023  05 04  03.9450 19191.7 -14991.3 -37.9946 24352.8
 02 10 2023  05 05  03.9448 19191.5 -14991.3 -37.9949 24352.7
 02 10 2023  05 06  03.9444 19191.2 -14991.4 -37.9953 24352.5
 02 10 2023  05 07  03.9442 19191.1 -14991.4 -37.9957 24352.4
 02 10 2023  05 08  03.9439 19191.0 -14991.5 -37.9959 24352.3
 02 10 2023  05 09  03.9438 19190.9 -14991.5 -37.9961 24352.3
 02 10 2023  05 10  03.9439 19190.6 -14991.5 -37.9965 24352.1
 02 10 2023  05 11  03.9441 19190.5 -14991.5 -37.9966 24352.1
 02 10 2023  05 12  03.9441 19190.4 -14991.6 -37.9969 24351.9
 02 10 2023  05 13  03.9439 19190.2 -14991.6 -37.9973 24351.8
 02 10 2023  05 14  03.9438 19190.0 -14991.6 -37.9975 24351.7
 02 10 2023  05 15  03.9435 19189.9 -14991.6 -37.9977 24351.7
 02 10 2023  05 16  03.9432 19189.6 -14991.7 -37.9982 24351.4
 02 10 2023  05 17  03.9428 19189.4 -14991.7 -37.9986 24351.3
 02 10 2023  05 18  03.9423 19189.2 -14991.8 -37.9990 24351.2
 02 10 2023  05 19  03.9420 19189.0 -14991.8 -37.9994 24351.0
 02 10 2023  05 20  03.9417 19188.8 -14991.9 -37.9998 24350.9
 02 10 2023  05 21  03.9413 19188.7 -14991.9 -38.0001 24350.8
 02 10 2023  05 22  03.9409 19188.4 -14992.0 -38.0005 24350.7
 02 10 2023  05 23  03.9405 19188.3 -14992.0 -38.0008 24350.6
 02 10 2023  05 24  03.9402 19188.3 -14992.1 -38.0009 24350.7
 02 10 2023  05 25  03.9399 19188.3 -14992.1 -38.0011 24350.6
 02 10 2023  05 26  03.9395 19188.1 -14992.2 -38.0014 24350.5
 02 10 2023  05 27  03.9393 19188.0 -14992.2 -38.0016 24350.5
 02 10 2023  05 28  03.9394 19188.0 -14992.3 -38.0017 24350.5
 02 10 2023  05 29  03.9394 19188.1 -14992.3 -38.0016 24350.6
 02 10 2023  05 30  03.9392 19188.2 -14992.3 -38.0016 24350.7
 02 10 2023  05 31  03.9389 19188.2 -14992.4 -38.0016 24350.7
 02 10 2023  05 32  03.9389 19188.2 -14992.4 -38.0017 24350.7
 02 10 2023  05 33  03.9390 19188.0 -14992.4 -38.0020 24350.6
 02 10 2023  05 34  03.9391 19187.8 -14992.5 -38.0023 24350.5
 02 10 2023  05 35  03.9393 19187.4 -14992.5 -38.0030 24350.1
 02 10 2023  05 36  03.9396 19187.0 -14992.5 -38.0036 24349.8
 02 10 2023  05 37  03.9397 19186.9 -14992.5 -38.0037 24349.7
 02 10 2023  05 38  03.9398 19186.9 -14992.5 -38.0038 24349.7
 02 10 2023  05 39  03.9394 19186.7 -14992.5 -38.0040 24349.6
 02 10 2023  05 40  03.9390 19186.6 -14992.5 -38.0042 24349.6
 02 10 2023  05 41  03.9389 19186.5 -14992.5 -38.0043 24349.5
 02 10 2023  05 42  03.9386 19186.5 -14992.6 -38.0044 24349.5
 02 10 2023  05 43  03.9384 19186.5 -14992.6 -38.0044 24349.5
 02 10 2023  05 44  03.9383 19186.6 -14992.6 -38.0044 24349.6
 02 10 2023  05 45  03.9381 19186.5 -14992.6 -38.0046 24349.5
 02 10 2023  05 46  03.9378 19186.4 -14992.6 -38.0047 24349.5
 02 10 2023  05 47  03.9374 19186.2 -14992.6 -38.0049 24349.3
 02 10 2023  05 48  03.9372 19186.1 -14992.7 -38.0051 24349.3
 02 10 2023  05 49  03.9369 19186.0 -14992.7 -38.0054 24349.2
 02 10 2023  05 50  03.9367 19186.0 -14992.7 -38.0054 24349.2
 02 10 2023  05 51  03.9366 19186.0 -14992.7 -38.0053 24349.2
 02 10 2023  05 52  03.9365 19186.1 -14992.7 -38.0052 24349.3
 02 10 2023  05 53  03.9364 19186.2 -14992.7 -38.0051 24349.4
 02 10 2023  05 54  03.9362 19186.2 -14992.7 -38.0051 24349.4
 02 10 2023  05 55  03.9362 19186.0 -14992.7 -38.0054 24349.2
 02 10 2023  05 56  03.9362 19186.0 -14992.7 -38.0054 24349.2
 02 10 2023  05 57  03.9362 19186.0 -14992.7 -38.0054 24349.2
 02 10 2023  05 58  03.9361 19186.0 -14992.7 -38.0054 24349.2
 02 10 2023  05 59  03.9360 19185.9 -14992.7 -38.0055 24349.2
 02 10 2023  06 00  03.9357 19185.8 -14992.7 -38.0057 24349.1
 02 10 2023  06 01  03.9356 19185.8 -14992.7 -38.0057 24349.0
 02 10 2023  06 02  03.9356 19185.8 -14992.7 -38.0057 24349.0
 02 10 2023  06 03  03.9357 19185.8 -14992.7 -38.0057 24349.0
 02 10 2023  06 04  03.9359 19185.9 -14992.7 -38.0055 24349.2
 02 10 2023  06 05  03.9361 19186.1 -14992.7 -38.0052 24349.3
 02 10 2023  06 06  03.9366 19186.3 -14992.7 -38.0049 24349.4
 02 10 2023  06 07  03.9369 19186.4 -14992.6 -38.0047 24349.5
 02 10 2023  06 08  03.9370 19186.4 -14992.6 -38.0046 24349.5
 02 10 2023  06 09  03.9369 19186.5 -14992.6 -38.0044 24349.5
 02 10 2023  06 10  03.9369 19186.5 -14992.5 -38.0044 24349.5
 02 10 2023  06 11  03.9366 19186.5 -14992.5 -38.0043 24349.5
 02 10 2023  06 12  03.9363 19186.5 -14992.5 -38.0042 24349.5
 02 10 2023  06 13  03.9363 19186.6 -14992.5 -38.0041 24349.5
 02 10 2023  06 14  03.9362 19186.5 -14992.5 -38.0042 24349.5
 02 10 2023  06 15  03.9361 19186.4 -14992.5 -38.0043 24349.4
 02 10 2023  06 16  03.9363 19186.3 -14992.4 -38.0045 24349.3
 02 10 2023  06 17  03.9362 19186.2 -14992.4 -38.0047 24349.2
 02 10 2023  06 18  03.9361 19186.0 -14992.4 -38.0049 24349.0
 02 10 2023  06 19  03.9362 19186.0 -14992.4 -38.0049 24349.0
 02 10 2023  06 20  03.9363 19186.0 -14992.4 -38.0048 24349.0
 02 10 2023  06 21  03.9365 19185.9 -14992.3 -38.0048 24348.9
 02 10 2023  06 22  03.9367 19185.9 -14992.3 -38.0049 24348.9
 02 10 2023  06 23  03.9370 19185.9 -14992.3 -38.0047 24348.9
 02 10 2023  06 24  03.9370 19185.9 -14992.3 -38.0047 24348.9
 02 10 2023  06 25  03.9367 19185.8 -14992.2 -38.0047 24348.8
 02 10 2023  06 26  03.9365 19185.9 -14992.2 -38.0047 24348.8
 02 10 2023  06 27  03.9364 19185.8 -14992.2 -38.0048 24348.7
 02 10 2023  06 28  03.9362 19185.6 -14992.2 -38.0051 24348.6
 02 10 2023  06 29  03.9361 19185.4 -14992.2 -38.0054 24348.5
 02 10 2023  06 30  03.9359 19185.5 -14992.3 -38.0053 24348.5
 02 10 2023  06 31  03.9362 19185.6 -14992.3 -38.0051 24348.7
 02 10 2023  06 32  03.9363 19185.9 -14992.3 -38.0048 24348.8
 02 10 2023  06 33  03.9366 19186.0 -14992.2 -38.0046 24348.9
 02 10 2023  06 34  03.9369 19186.1 -14992.2 -38.0043 24349.0
 02 10 2023  06 35  03.9370 19186.2 -14992.2 -38.0042 24349.1
 02 10 2023  06 36  03.9374 19186.4 -14992.2 -38.0039 24349.2
 02 10 2023  06 37  03.9379 19186.6 -14992.2 -38.0035 24349.3
 02 10 2023  06 38  03.9385 19186.8 -14992.1 -38.0032 24349.5
 02 10 2023  06 39  03.9390 19187.0 -14992.1 -38.0028 24349.6
 02 10 2023  06 40  03.9394 19187.1 -14992.0 -38.0026 24349.7
 02 10 2023  06 41  03.9398 19187.2 -14992.0 -38.0022 24349.7
 02 10 2023  06 42  03.9403 19187.6 -14991.9 -38.0016 24350.0
 02 10 2023  06 43  03.9405 19188.0 -14991.9 -38.0010 24350.3
 02 10 2023  06 44  03.9406 19188.5 -14991.8 -38.0002 24350.6
 02 10 2023  06 45  03.9407 19188.9 -14991.8 -37.9995 24350.9
 02 10 2023  06 46  03.9408 19189.1 -14991.8 -37.9992 24351.1
 02 10 2023  06 47  03.9407 19189.1 -14991.8 -37.9991 24351.1
 02 10 2023  06 48  03.9408 19189.1 -14991.8 -37.9992 24351.1
 02 10 2023  06 49  03.9408 19189.1 -14991.7 -37.9991 24351.1
 02 10 2023  06 50  03.9408 19189.3 -14991.7 -37.9988 24351.2
 02 10 2023  06 51  03.9407 19189.6 -14991.7 -37.9984 24351.4
 02 10 2023  06 52  03.9404 19189.5 -14991.7 -37.9985 24351.4
 02 10 2023  06 53  03.9402 19189.3 -14991.7 -37.9987 24351.2
 02 10 2023  06 54  03.9400 19189.0 -14991.7 -37.9992 24351.0
 02 10 2023  06 55  03.9399 19188.8 -14991.7 -37.9995 24350.8
 02 10 2023  06 56  03.9395 19188.5 -14991.7 -37.9999 24350.6
 02 10 2023  06 57  03.9392 19188.3 -14991.7 -38.0002 24350.4
 02 10 2023  06 58  03.9388 19188.2 -14991.7 -38.0005 24350.3
 02 10 2023  06 59  03.9383 19188.2 -14991.8 -38.0005 24350.4
 02 10 2023  07 00  03.9381 19188.3 -14991.8 -38.0004 24350.4
 02 10 2023  07 01  03.9379 19188.4 -14991.8 -38.0002 24350.5
 02 10 2023  07 02  03.9376 19188.4 -14991.8 -38.0002 24350.5
 02 10 2023  07 03  03.9375 19188.3 -14991.8 -38.0003 24350.5
 02 10 2023  07 04  03.9374 19188.3 -14991.7 -38.0003 24350.4
 02 10 2023  07 05  03.9375 19188.3 -14991.8 -38.0003 24350.4
 02 10 2023  07 06  03.9375 19188.4 -14991.7 -38.0002 24350.5
 02 10 2023  07 07  03.9374 19188.5 -14991.7 -38.0000 24350.6
 02 10 2023  07 08  03.9370 19188.5 -14991.7 -37.9999 24350.6
 02 10 2023  07 09  03.9368 19188.6 -14991.7 -37.9999 24350.6
 02 10 2023  07 10  03.9365 19188.4 -14991.8 -38.0002 24350.5
 02 10 2023  07 11  03.9362 19188.1 -14991.7 -38.0006 24350.2
 02 10 2023  07 12  03.9359 19187.8 -14991.7 -38.0009 24350.0
 02 10 2023  07 13  03.9357 19187.7 -14991.7 -38.0012 24349.9
 02 10 2023  07 14  03.9353 19187.6 -14991.7 -38.0012 24349.9
 02 10 2023  07 15  03.9348 19187.6 -14991.7 -38.0013 24349.8
 02 10 2023  07 16  03.9345 19187.7 -14991.7 -38.0011 24349.9
 02 10 2023  07 17  03.9343 19187.9 -14991.7 -38.0007 24350.1
 02 10 2023  07 18  03.9341 19188.0 -14991.6 -38.0005 24350.1
 02 10 2023  07 19  03.9339 19188.1 -14991.6 -38.0003 24350.2
 02 10 2023  07 20  03.9338 19188.2 -14991.6 -38.0001 24350.3
 02 10 2023  07 21  03.9337 19188.2 -14991.6 -38.0000 24350.3
 02 10 2023  07 22  03.9337 19188.2 -14991.5 -38.0001 24350.2
 02 10 2023  07 23  03.9338 19188.1 -14991.5 -38.0001 24350.1
 02 10 2023  07 24  03.9339 19187.9 -14991.4 -38.0003 24349.9
 02 10 2023  07 25  03.9339 19187.8 -14991.4 -38.0004 24349.8
 02 10 2023  07 26  03.9338 19187.7 -14991.4 -38.0005 24349.7
 02 10 2023  07 27  03.9337 19187.7 -14991.3 -38.0005 24349.7
 02 10 2023  07 28  03.9337 19187.6 -14991.3 -38.0005 24349.6
 02 10 2023  07 29  03.9337 19187.7 -14991.3 -38.0002 24349.7
 02 10 2023  07 30  03.9337 19187.8 -14991.2 -38.0001 24349.7
 02 10 2023  07 31  03.9336 19188.0 -14991.2 -37.9997 24349.8
 02 10 2023  07 32  03.9335 19188.0 -14991.1 -37.9996 24349.8
 02 10 2023  07 33  03.9334 19188.0 -14991.1 -37.9995 24349.8
 02 10 2023  07 34  03.9333 19188.1 -14991.1 -37.9993 24349.9
 02 10 2023  07 35  03.9332 19188.3 -14991.1 -37.9991 24350.0
 02 10 2023  07 36  03.9332 19188.4 -14991.0 -37.9988 24350.0
 02 10 2023  07 37  03.9334 19188.4 -14991.0 -37.9987 24350.0
 02 10 2023  07 38  03.9336 19188.4 -14990.9 -37.9987 24350.0
 02 10 2023  07 39  03.9338 19188.3 -14990.9 -37.9986 24349.9
 02 10 2023  07 40  03.9338 19188.3 -14990.8 -37.9985 24349.9
 02 10 2023  07 41  03.9341 19188.3 -14990.8 -37.9985 24349.8
 02 10 2023  07 42  03.9344 19188.2 -14990.7 -37.9985 24349.7
 02 10 2023  07 43  03.9346 19188.2 -14990.6 -37.9984 24349.7
 02 10 2023  07 44  03.9348 19188.3 -14990.6 -37.9981 24349.7
 02 10 2023  07 45  03.9353 19188.4 -14990.5 -37.9979 24349.7
 02 10 2023  07 46  03.9357 19188.5 -14990.5 -37.9977 24349.8
 02 10 2023  07 47  03.9358 19188.5 -14990.4 -37.9974 24349.8
 02 10 2023  07 48  03.9359 19188.7 -14990.3 -37.9971 24349.8
 02 10 2023  07 49  03.9359 19188.8 -14990.2 -37.9968 24349.9
 02 10 2023  07 50  03.9358 19188.8 -14990.2 -37.9967 24349.9
 02 10 2023  07 51  03.9360 19188.9 -14990.2 -37.9965 24349.9
 02 10 2023  07 52  03.9364 19189.0 -14990.1 -37.9962 24350.0
 02 10 2023  07 53  03.9368 19189.1 -14990.1 -37.9960 24350.0
 02 10 2023  07 54  03.9372 19189.1 -14990.0 -37.9959 24350.0
 02 10 2023  07 55  03.9376 19189.1 -14989.9 -37.9958 24349.9
 02 10 2023  07 56  03.9380 19189.1 -14989.9 -37.9957 24349.9
 02 10 2023  07 57  03.9381 19189.1 -14989.8 -37.9956 24349.9
 02 10 2023  07 58  03.9380 19189.1 -14989.8 -37.9954 24349.9
 02 10 2023  07 59  03.9379 19189.3 -14989.7 -37.9951 24350.0
 02 10 2023  08 00  03.9379 19189.4 -14989.7 -37.9949 24350.0
 02 10 2023  08 01  03.9379 19189.5 -14989.6 -37.9946 24350.1
 02 10 2023  08 02  03.9381 19189.7 -14989.6 -37.9943 24350.2
 02 10 2023  08 03  03.9383 19189.8 -14989.6 -37.9940 24350.3
 02 10 2023  08 04  03.9385 19190.0 -14989.5 -37.9937 24350.4
 02 10 2023  08 05  03.9384 19190.2 -14989.5 -37.9933 24350.5
 02 10 2023  08 06  03.9384 19190.5 -14989.4 -37.9928 24350.8
 02 10 2023  08 07  03.9386 19191.0 -14989.4 -37.9920 24351.1
 02 10 2023  08 08  03.9388 19191.6 -14989.4 -37.9912 24351.5
 02 10 2023  08 09  03.9391 19192.1 -14989.3 -37.9902 24351.9
 02 10 2023  08 10  03.9395 19192.6 -14989.2 -37.9894 24352.2
 02 10 2023  08 11  03.9401 19192.8 -14989.1 -37.9890 24352.4
 02 10 2023  08 12  03.9406 19192.6 -14989.1 -37.9891 24352.2
 02 10 2023  08 13  03.9408 19192.3 -14989.0 -37.9894 24351.9
 02 10 2023  08 14  03.9408 19192.0 -14988.9 -37.9897 24351.6
 02 10 2023  08 15  03.9409 19191.8 -14988.9 -37.9899 24351.4
 02 10 2023  08 16  03.9411 19191.6 -14988.8 -37.9900 24351.3
 02 10 2023  08 17  03.9413 19191.7 -14988.8 -37.9900 24351.3
 02 10 2023  08 18  03.9416 19191.9 -14988.8 -37.9897 24351.4
 02 10 2023  08 19  03.9421 19192.1 -14988.7 -37.9892 24351.6
 02 10 2023  08 20  03.9428 19192.4 -14988.7 -37.9886 24351.8
 02 10 2023  08 21  03.9433 19192.8 -14988.6 -37.9881 24352.0
 02 10 2023  08 22  03.9438 19193.2 -14988.6 -37.9874 24352.3
 02 10 2023  08 23  03.9441 19193.3 -14988.5 -37.9870 24352.4
 02 10 2023  08 24  03.9443 19193.3 -14988.4 -37.9869 24352.3
 02 10 2023  08 25  03.9446 19193.4 -14988.4 -37.9867 24352.4
 02 10 2023  08 26  03.9448 19193.4 -14988.3 -37.9866 24352.4
 02 10 2023  08 27  03.9449 19193.5 -14988.3 -37.9864 24352.4
 02 10 2023  08 28  03.9450 19193.5 -14988.3 -37.9863 24352.4
 02 10 2023  08 29  03.9452 19193.6 -14988.3 -37.9861 24352.5
 02 10 2023  08 30  03.9454 19193.7 -14988.3 -37.9860 24352.5
 02 10 2023  08 31  03.9455 19193.8 -14988.2 -37.9858 24352.6
 02 10 2023  08 32  03.9456 19193.8 -14988.2 -37.9857 24352.6
 02 10 2023  08 33  03.9455 19193.8 -14988.2 -37.9857 24352.6
 02 10 2023  08 34  03.9455 19193.9 -14988.2 -37.9857 24352.6
 02 10 2023  08 35  03.9455 19193.8 -14988.2 -37.9858 24352.6
 02 10 2023  08 36  03.9454 19193.7 -14988.2 -37.9859 24352.5
 02 10 2023  08 37  03.9451 19193.6 -14988.2 -37.9861 24352.4
 02 10 2023  08 38  03.9449 19193.4 -14988.2 -37.9863 24352.3
 02 10 2023  08 39  03.9448 19193.3 -14988.3 -37.9866 24352.2
 02 10 2023  08 40  03.9447 19193.3 -14988.3 -37.9867 24352.2
 02 10 2023  08 41  03.9446 19193.2 -14988.3 -37.9869 24352.2
 02 10 2023  08 42  03.9444 19193.2 -14988.3 -37.9869 24352.2
 02 10 2023  08 43  03.9444 19193.1 -14988.4 -37.9871 24352.1
 02 10 2023  08 44  03.9445 19192.9 -14988.5 -37.9875 24352.1
 02 10 2023  08 45  03.9443 19192.8 -14988.5 -37.9878 24352.0
 02 10 2023  08 46  03.9440 19193.0 -14988.4 -37.9872 24352.1
 02 10 2023  08 47  03.9440 19193.2 -14988.4 -37.9870 24352.2
 02 10 2023  08 48  03.9439 19193.2 -14988.4 -37.9871 24352.2
 02 10 2023  08 49  03.9438 19193.3 -14988.4 -37.9870 24352.3
 02 10 2023  08 50  03.9437 19193.3 -14988.4 -37.9869 24352.3
 02 10 2023  08 51  03.9436 19193.3 -14988.4 -37.9869 24352.4
 02 10 2023  08 52  03.9434 19193.4 -14988.5 -37.9869 24352.4
 02 10 2023  08 53  03.9431 19193.5 -14988.4 -37.9867 24352.5
 02 10 2023  08 54  03.9430 19193.5 -14988.5 -37.9866 24352.5
 02 10 2023  08 55  03.9427 19193.6 -14988.5 -37.9866 24352.6
 02 10 2023  08 56  03.9427 19193.7 -14988.5 -37.9865 24352.6
 02 10 2023  08 57  03.9429 19193.7 -14988.5 -37.9863 24352.7
 02 10 2023  08 58  03.9429 19193.8 -14988.4 -37.9862 24352.7
 02 10 2023  08 59  03.9429 19193.8 -14988.5 -37.9862 24352.8
 02 10 2023  09 00  03.9430 19193.9 -14988.4 -37.9860 24352.8
 02 10 2023  09 01  03.9432 19194.0 -14988.4 -37.9858 24352.9
 02 10 2023  09 02  03.9432 19194.0 -14988.4 -37.9858 24352.8
 02 10 2023  09 03  03.9432 19194.0 -14988.3 -37.9858 24352.8
 02 10 2023  09 04  03.9434 19193.9 -14988.3 -37.9858 24352.8
 02 10 2023  09 05  03.9436 19193.9 -14988.3 -37.9859 24352.7
 02 10 2023  09 06  03.9437 19193.9 -14988.3 -37.9858 24352.7
 02 10 2023  09 07  03.9440 19193.8 -14988.3 -37.9859 24352.6
 02 10 2023  09 08  03.9445 19193.7 -14988.2 -37.9859 24352.5
 02 10 2023  09 09  03.9447 19193.7 -14988.2 -37.9860 24352.5
 02 10 2023  09 10  03.9447 19193.6 -14988.2 -37.9860 24352.4
 02 10 2023  09 11  03.9446 19193.6 -14988.2 -37.9861 24352.4
 02 10 2023  09 12  03.9446 19193.6 -14988.2 -37.9860 24352.4
 02 10 2023  09 13  03.9446 19193.7 -14988.2 -37.9858 24352.5
 02 10 2023  09 14  03.9446 19193.8 -14988.1 -37.9855 24352.5
 02 10 2023  09 15  03.9447 19193.9 -14988.1 -37.9855 24352.6
 02 10 2023  09 16  03.9446 19194.1 -14988.1 -37.9851 24352.7
 02 10 2023  09 17  03.9446 19194.4 -14988.0 -37.9845 24352.9
 02 10 2023  09 18  03.9448 19194.6 -14988.0 -37.9841 24353.1
 02 10 2023  09 19  03.9451 19194.6 -14987.9 -37.9841 24353.1
 02 10 2023  09 20  03.9456 19194.4 -14988.0 -37.9845 24352.9
 02 10 2023  09 21  03.9459 19194.1 -14987.9 -37.9848 24352.7
 02 10 2023  09 22  03.9461 19194.1 -14987.9 -37.9849 24352.6
 02 10 2023  09 23  03.9462 19194.0 -14987.9 -37.9849 24352.6
 02 10 2023  09 24  03.9465 19194.1 -14987.9 -37.9847 24352.6
 02 10 2023  09 25  03.9468 19194.2 -14987.9 -37.9845 24352.7
 02 10 2023  09 26  03.9470 19194.3 -14987.8 -37.9844 24352.7
 02 10 2023  09 27  03.9474 19194.4 -14987.8 -37.9840 24352.8
 02 10 2023  09 28  03.9477 19194.6 -14987.7 -37.9838 24352.9
 02 10 2023  09 29  03.9479 19194.7 -14987.7 -37.9835 24353.0
 02 10 2023  09 30  03.9478 19194.8 -14987.7 -37.9833 24353.1
 02 10 2023  09 31  03.9476 19194.9 -14987.7 -37.9832 24353.1
 02 10 2023  09 32  03.9477 19195.0 -14987.7 -37.9831 24353.2
 02 10 2023  09 33  03.9479 19195.0 -14987.6 -37.9829 24353.2
 02 10 2023  09 34  03.9480 19195.1 -14987.6 -37.9828 24353.3
 02 10 2023  09 35  03.9482 19195.2 -14987.6 -37.9826 24353.3
 02 10 2023  09 36  03.9486 19195.4 -14987.5 -37.9822 24353.4
 02 10 2023  09 37  03.9487 19195.7 -14987.4 -37.9815 24353.6
 02 10 2023  09 38  03.9491 19195.8 -14987.4 -37.9814 24353.6
 02 10 2023  09 39  03.9494 19195.8 -14987.4 -37.9813 24353.6
 02 10 2023  09 40  03.9494 19195.7 -14987.4 -37.9814 24353.6
 02 10 2023  09 41  03.9495 19195.6 -14987.4 -37.9816 24353.5
 02 10 2023  09 42  03.9501 19195.7 -14987.4 -37.9815 24353.6
 02 10 2023  09 43  03.9506 19195.8 -14987.3 -37.9812 24353.6
 02 10 2023  09 44  03.9510 19195.7 -14987.3 -37.9813 24353.5
 02 10 2023  09 45  03.9510 19195.6 -14987.3 -37.9815 24353.4
 02 10 2023  09 46  03.9512 19195.7 -14987.2 -37.9811 24353.5
 02 10 2023  09 47  03.9516 19195.7 -14987.2 -37.9812 24353.4
 02 10 2023  09 48  03.9519 19195.8 -14987.1 -37.9809 24353.5
 02 10 2023  09 49  03.9525 19196.1 -14987.1 -37.9803 24353.7
 02 10 2023  09 50  03.9531 19196.3 -14987.0 -37.9799 24353.9
 02 10 2023  09 51  03.9536 19196.7 -14987.0 -37.9794 24354.1
 02 10 2023  09 52  03.9537 19196.9 -14987.0 -37.9790 24354.2
 02 10 2023  09 53  03.9539 19197.1 -14986.9 -37.9785 24354.4
 02 10 2023  09 54  03.9542 19197.4 -14986.8 -37.9779 24354.6
 02 10 2023  09 55  03.9547 19197.7 -14986.7 -37.9775 24354.7
 02 10 2023  09 56  03.9551 19197.9 -14986.7 -37.9770 24354.9
 02 10 2023  09 57  03.9554 19198.2 -14986.6 -37.9765 24355.1
 02 10 2023  09 58  03.9559 19198.4 -14986.6 -37.9761 24355.2
 02 10 2023  09 59  03.9563 19198.5 -14986.5 -37.9758 24355.3
 02 10 2023  10 00  03.9569 19198.8 -14986.4 -37.9753 24355.4
 02 10 2023  10 01  03.9571 19199.0 -14986.3 -37.9748 24355.5
 02 10 2023  10 02  03.9573 19199.0 -14986.3 -37.9746 24355.5
 02 10 2023  10 03  03.9577 19199.3 -14986.2 -37.9741 24355.7
 02 10 2023  10 04  03.9579 19199.5 -14986.1 -37.9737 24355.8
 02 10 2023  10 05  03.9583 19199.7 -14986.1 -37.9733 24355.9
 02 10 2023  10 06  03.9587 19199.9 -14986.0 -37.9728 24356.0
 02 10 2023  10 07  03.9589 19200.2 -14985.9 -37.9722 24356.2
 02 10 2023  10 08  03.9587 19200.4 -14985.9 -37.9719 24356.3
 02 10 2023  10 09  03.9591 19200.7 -14985.9 -37.9715 24356.6
 02 10 2023  10 10  03.9594 19200.9 -14985.9 -37.9712 24356.8
 02 10 2023  10 11  03.9595 19201.0 -14985.8 -37.9709 24356.8
 02 10 2023  10 12  03.9600 19201.2 -14985.8 -37.9707 24357.0
 02 10 2023  10 13  03.9605 19201.6 -14985.8 -37.9701 24357.2
 02 10 2023  10 14  03.9609 19201.9 -14985.7 -37.9694 24357.5
 02 10 2023  10 15  03.9609 19202.2 -14985.7 -37.9689 24357.7
 02 10 2023  10 16  03.9607 19202.4 -14985.7 -37.9686 24357.8
 02 10 2023  10 17  03.9609 19202.6 -14985.7 -37.9684 24358.0
 02 10 2023  10 18  03.9611 19202.9 -14985.7 -37.9679 24358.2
 02 10 2023  10 19  03.9615 19203.2 -14985.7 -37.9674 24358.5
 02 10 2023  10 20  03.9617 19203.5 -14985.7 -37.9671 24358.6
 02 10 2023  10 21  03.9617 19203.8 -14985.6 -37.9665 24358.9
 02 10 2023  10 22  03.9617 19204.0 -14985.6 -37.9662 24359.1
 02 10 2023  10 23  03.9616 19204.3 -14985.7 -37.9658 24359.3
 02 10 2023  10 24  03.9615 19204.6 -14985.7 -37.9654 24359.6
 02 10 2023  10 25  03.9617 19204.9 -14985.7 -37.9649 24359.8
 02 10 2023  10 26  03.9620 19205.1 -14985.7 -37.9647 24359.9
 02 10 2023  10 27  03.9619 19205.3 -14985.7 -37.9645 24360.1
 02 10 2023  10 28  03.9619 19205.4 -14985.8 -37.9645 24360.2
 02 10 2023  10 29  03.9623 19205.4 -14985.8 -37.9644 24360.2
 02 10 2023  10 30  03.9609 19205.2 -14985.8 -37.9648 24360.1
 02 10 2023  10 31  03.9608 19205.2 -14985.9 -37.9650 24360.2
 02 10 2023  10 32  03.9615 19205.5 -14986.0 -37.9647 24360.5
 02 10 2023  10 33  03.9615 19205.8 -14986.0 -37.9644 24360.7
 02 10 2023  10 34  03.9611 19205.8 -14986.1 -37.9645 24360.8
 02 10 2023  10 35  03.9611 19206.0 -14986.2 -37.9644 24360.9
 02 10 2023  10 36  03.9609 19206.1 -14986.2 -37.9643 24361.0
 02 10 2023  10 37  03.9610 19206.2 -14986.3 -37.9643 24361.2
 02 10 2023  10 38  03.9602 19206.1 -14986.3 -37.9644 24361.2
 02 10 2023  10 39  03.9610 19206.4 -14986.4 -37.9642 24361.4
 02 10 2023  10 40  03.9609 19206.5 -14986.4 -37.9641 24361.5
 02 10 2023  10 41  03.9603 19206.5 -14986.5 -37.9641 24361.5
 02 10 2023  10 42  03.9599 19206.6 -14986.5 -37.9641 24361.6
 02 10 2023  10 43  03.9593 19206.6 -14986.6 -37.9642 24361.7
 02 10 2023  10 44  03.9595 19206.6 -14986.6 -37.9643 24361.7
 02 10 2023  10 45  03.9593 19206.3 -14986.6 -37.9647 24361.5
 02 10 2023  10 46  03.9605 19206.5 -14986.8 -37.9647 24361.7
 02 10 2023  10 47  03.9609 19206.3 -14986.7 -37.9649 24361.5
 02 10 2023  10 48  03.9607 19205.8 -14986.7 -37.9655 24361.1
 02 10 2023  10 49  03.9618 19205.4 -14986.7 -37.9662 24360.8
 02 10 2023  10 50  03.9615 19205.4 -14986.8 -37.9662 24360.9
 02 10 2023  10 51  03.9614 19205.5 -14986.8 -37.9662 24360.9
 02 10 2023  10 52  03.9608 19205.2 -14986.8 -37.9666 24360.7
 02 10 2023  10 53  03.9615 19205.1 -14986.9 -37.9669 24360.7
 02 10 2023  10 54  03.9610 19205.1 -14987.0 -37.9671 24360.7
 02 10 2023  10 55  03.9616 19205.0 -14987.1 -37.9674 24360.7
 02 10 2023  10 56  03.9612 19205.1 -14987.1 -37.9674 24360.8
 02 10 2023  10 57  03.9625 19205.5 -14987.2 -37.9669 24361.2
 02 10 2023  10 58  03.9628 19205.5 -14987.2 -37.9669 24361.2
 02 10 2023  10 59  03.9631 19205.6 -14987.2 -37.9668 24361.3
 02 10 2023  11 00  03.9625 19205.5 -14987.3 -37.9672 24361.2
 02 10 2023  11 01  03.9624 19205.3 -14987.3 -37.9675 24361.1
 02 10 2023  11 02  03.9628 19204.8 -14987.5 -37.9684 24360.8
 02 10 2023  11 03  03.9627 19204.9 -14987.6 -37.9685 24360.9
 02 10 2023  11 04  03.9617 19205.0 -14987.6 -37.9683 24361.0
 02 10 2023  11 05  03.9611 19205.0 -14987.6 -37.9685 24361.0
 02 10 2023  11 06  03.9608 19204.9 -14987.8 -37.9689 24361.0
 02 10 2023  11 07  03.9602 19204.9 -14987.8 -37.9689 24361.1
 02 10 2023  11 08  03.9600 19205.2 -14987.9 -37.9686 24361.4
 02 10 2023  11 09  03.9596 19205.3 -14987.9 -37.9687 24361.5
 02 10 2023  11 10  03.9594 19205.3 -14988.0 -37.9687 24361.6
 02 10 2023  11 11  03.9594 19205.4 -14988.1 -37.9688 24361.6
 02 10 2023  11 12  03.9585 19205.3 -14988.2 -37.9690 24361.6
 02 10 2023  11 13  03.9568 19205.2 -14988.3 -37.9693 24361.6
 02 10 2023  11 14  03.9563 19205.2 -14988.4 -37.9695 24361.7
 02 10 2023  11 15  03.9550 19205.3 -14988.5 -37.9696 24361.9
 02 10 2023  11 16  03.9525 19206.3 -14987.2 -37.9658 24361.8
 02 10 2023  11 17  03.9544 19208.4 -14987.6 -37.9636 24363.7
 02 10 2023  11 18  03.9521 19204.5 -14989.1 -37.9720 24361.6
 02 10 2023  11 19  03.9521 19204.6 -14989.2 -37.9719 24361.7
 02 10 2023  11 20  03.9526 19204.8 -14989.3 -37.9718 24361.9
 02 10 2023  11 21  03.9532 19204.8 -14989.3 -37.9718 24361.9
 02 10 2023  11 22  03.9534 19204.8 -14989.3 -37.9718 24362.0
 02 10 2023  11 23  03.9531 19204.9 -14989.3 -37.9718 24362.0
 02 10 2023  11 24  03.9534 19205.0 -14989.3 -37.9716 24362.1
 02 10 2023  11 25  03.9534 19205.1 -14989.3 -37.9715 24362.1
 02 10 2023  11 26  03.9526 19205.0 -14989.4 -37.9718 24362.1
 02 10 2023  11 27  03.9519 19204.8 -14989.5 -37.9723 24362.0
 02 10 2023  11 28  03.9509 19204.7 -14989.6 -37.9726 24362.0
 02 10 2023  11 29  03.9504 19204.6 -14989.6 -37.9727 24362.0
 02 10 2023  11 30  03.9507 19204.6 -14989.7 -37.9730 24362.0
 02 10 2023  11 31  03.9508 19204.5 -14989.7 -37.9731 24362.0
 02 10 2023  11 32  03.9509 19204.5 -14989.8 -37.9732 24362.0
 02 10 2023  11 33  03.9511 19204.3 -14989.9 -37.9737 24361.9
 02 10 2023  11 34  03.9504 19204.1 -14989.9 -37.9740 24361.8
 02 10 2023  11 35  03.9494 19204.2 -14989.9 -37.9739 24361.9
 02 10 2023  11 36  03.9485 19204.3 -14990.0 -37.9739 24362.0
 02 10 2023  11 37  03.9484 19204.1 -14990.2 -37.9745 24361.9
 02 10 2023  11 38  03.9481 19203.9 -14990.3 -37.9751 24361.8
 02 10 2023  11 39  03.9472 19203.7 -14990.5 -37.9756 24361.8
 02 10 2023  11 40  03.9459 19203.7 -14990.6 -37.9759 24361.9
 02 10 2023  11 41  03.9465 19204.0 -14990.8 -37.9758 24362.2
 02 10 2023  11 42  03.9450 19203.9 -14991.0 -37.9763 24362.3
 02 10 2023  11 43  03.9448 19203.8 -14991.1 -37.9766 24362.3
 02 10 2023  11 44  03.9446 19203.9 -14991.2 -37.9767 24362.4
 02 10 2023  11 45  03.9442 19204.0 -14991.2 -37.9766 24362.5
 02 10 2023  11 46  03.9438 19204.2 -14991.3 -37.9765 24362.7
 02 10 2023  11 47  03.9422 19204.2 -14991.3 -37.9765 24362.7
 02 10 2023  11 48  03.9402 19204.3 -14991.4 -37.9766 24362.8
 02 10 2023  11 49  03.9389 19204.4 -14991.6 -37.9767 24363.0
 02 10 2023  11 50  03.9383 19204.5 -14991.7 -37.9767 24363.2
 02 10 2023  11 51  03.9378 19204.6 -14991.8 -37.9767 24363.3
 02 10 2023  11 52  03.9378 19204.8 -14991.9 -37.9765 24363.5
 02 10 2023  11 53  03.9378 19205.2 -14991.9 -37.9762 24363.8
 02 10 2023  11 54  03.9373 19205.4 -14991.9 -37.9758 24364.0
 02 10 2023  11 55  03.9369 19205.4 -14991.9 -37.9758 24364.0
 02 10 2023  11 56  03.9370 19205.4 -14991.9 -37.9759 24364.0
 02 10 2023  11 57  03.9363 19205.3 -14992.0 -37.9761 24364.0
 02 10 2023  11 58  03.9356 19205.1 -14992.0 -37.9765 24363.9
 02 10 2023  11 59  03.9351 19204.9 -14992.1 -37.9770 24363.7
 02 10 2023  12 00  03.9346 19204.8 -14992.1 -37.9771 24363.6
 02 10 2023  12 01  03.9339 19204.6 -14992.3 -37.9776 24363.6
 02 10 2023  12 02  03.9338 19204.7 -14992.3 -37.9777 24363.7
 02 10 2023  12 03  03.9343 19204.6 -14992.4 -37.9780 24363.7
 02 10 2023  12 04  03.9340 19204.3 -14992.6 -37.9787 24363.5
 02 10 2023  12 05  03.9332 19204.2 -14992.7 -37.9790 24363.5
 02 10 2023  12 06  03.9322 19204.2 -14992.7 -37.9791 24363.5
 02 10 2023  12 07  03.9307 19204.0 -14992.8 -37.9795 24363.4
 02 10 2023  12 08  03.9292 19203.9 -14992.9 -37.9799 24363.4
 02 10 2023  12 09  03.9279 19203.9 -14993.0 -37.9800 24363.5
 02 10 2023  12 10  03.9274 19203.6 -14993.1 -37.9807 24363.3
 02 10 2023  12 11  03.9276 19203.2 -14993.2 -37.9814 24363.1
 02 10 2023  12 12  03.9274 19202.9 -14993.3 -37.9820 24362.9
 02 10 2023  12 13  03.9270 19202.6 -14993.4 -37.9825 24362.7
 02 10 2023  12 14  03.9257 19202.4 -14993.5 -37.9831 24362.6
 02 10 2023  12 15  03.9248 19202.4 -14993.6 -37.9832 24362.7
 02 10 2023  12 16  03.9238 19202.6 -14993.6 -37.9830 24362.9
 02 10 2023  12 17  03.9225 19202.9 -14993.6 -37.9826 24363.1
 02 10 2023  12 18  03.9211 19203.0 -14993.7 -37.9825 24363.2
 02 10 2023  12 19  03.9207 19203.2 -14993.7 -37.9824 24363.4
 02 10 2023  12 20  03.9207 19203.2 -14993.8 -37.9825 24363.4
 02 10 2023  12 21  03.9203 19203.1 -14993.8 -37.9826 24363.4
 02 10 2023  12 22  03.9191 19203.2 -14993.8 -37.9826 24363.4
 02 10 2023  12 23  03.9180 19203.2 -14993.8 -37.9826 24363.5
 02 10 2023  12 24  03.9171 19203.2 -14993.9 -37.9827 24363.5
 02 10 2023  12 25  03.9158 19203.0 -14993.9 -37.9830 24363.4
 02 10 2023  12 26  03.9148 19202.8 -14994.0 -37.9834 24363.3
 02 10 2023  12 27  03.9136 19202.8 -14994.1 -37.9836 24363.3
 02 10 2023  12 28  03.9128 19202.7 -14994.2 -37.9839 24363.3
 02 10 2023  12 29  03.9119 19202.5 -14994.2 -37.9843 24363.2
 02 10 2023  12 30  03.9108 19202.5 -14994.3 -37.9845 24363.2
 02 10 2023  12 31  03.9096 19202.5 -14994.4 -37.9845 24363.2
 02 10 2023  12 32  03.9086 19202.6 -14994.4 -37.9845 24363.3
 02 10 2023  12 33  03.9079 19202.5 -14994.4 -37.9846 24363.3
 02 10 2023  12 34  03.9075 19202.3 -14994.4 -37.9850 24363.2
 02 10 2023  12 35  03.9066 19202.2 -14994.5 -37.9853 24363.0
 02 10 2023  12 36  03.9057 19202.1 -14994.5 -37.9854 24363.0
 02 10 2023  12 37  03.9047 19201.9 -14994.6 -37.9860 24362.9
 02 10 2023  12 38  03.9038 19202.1 -14994.5 -37.9855 24363.0
 02 10 2023  12 39  03.9030 19202.1 -14994.6 -37.9855 24363.0
 02 10 2023  12 40  03.9023 19202.1 -14994.6 -37.9855 24363.0
 02 10 2023  12 41  03.9017 19202.0 -14994.6 -37.9856 24363.0
 02 10 2023  12 42  03.9010 19202.1 -14994.6 -37.9856 24363.0
 02 10 2023  12 43  03.9000 19202.2 -14994.6 -37.9855 24363.2
 02 10 2023  12 44  03.8991 19202.3 -14994.6 -37.9854 24363.2
 02 10 2023  12 45  03.8987 19202.5 -14994.7 -37.9853 24363.4
 02 10 2023  12 46  03.8978 19202.6 -14994.7 -37.9851 24363.5
 02 10 2023  12 47  03.8967 19202.7 -14994.7 -37.9849 24363.7
 02 10 2023  12 48  03.8956 19202.7 -14994.8 -37.9851 24363.6
 02 10 2023  12 49  03.8945 19202.8 -14994.7 -37.9848 24363.7
 02 10 2023  12 50  03.8931 19202.8 -14994.7 -37.9848 24363.6
 02 10 2023  12 51  03.8922 19202.8 -14994.7 -37.9847 24363.7
 02 10 2023  12 52  03.8914 19203.0 -14994.6 -37.9844 24363.8
 02 10 2023  12 53  03.8907 19203.0 -14994.5 -37.9842 24363.7
 02 10 2023  12 54  03.8901 19202.9 -14994.5 -37.9842 24363.6
 02 10 2023  12 55  03.8892 19202.9 -14994.4 -37.9841 24363.6
 02 10 2023  12 56  03.8886 19203.1 -14994.3 -37.9836 24363.6
 02 10 2023  12 57  03.8874 19203.0 -14994.2 -37.9834 24363.5
 02 10 2023  12 58  03.8866 19203.3 -14994.0 -37.9827 24363.7
 02 10 2023  12 59  03.8857 19203.5 -14993.9 -37.9823 24363.7
 02 10 2023  13 00  03.8849 19203.5 -14993.8 -37.9820 24363.7
 02 10 2023  13 01  03.8848 19203.5 -14993.6 -37.9818 24363.6
 02 10 2023  13 02  03.8845 19203.5 -14993.5 -37.9815 24363.5
 02 10 2023  13 03  03.8836 19203.9 -14993.4 -37.9808 24363.7
 02 10 2023  13 04  03.8826 19204.4 -14993.2 -37.9796 24364.0
 02 10 2023  13 05  03.8818 19204.9 -14993.0 -37.9785 24364.2
 02 10 2023  13 06  03.8813 19205.3 -14992.7 -37.9775 24364.4
 02 10 2023  13 07  03.8805 19205.4 -14992.5 -37.9770 24364.4
 02 10 2023  13 08  03.8799 19205.3 -14992.4 -37.9768 24364.2
 02 10 2023  13 09  03.8787 19205.3 -14992.2 -37.9765 24364.2
 02 10 2023  13 10  03.8777 19205.7 -14992.1 -37.9758 24364.3
 02 10 2023  13 11  03.8767 19205.8 -14991.9 -37.9752 24364.3
 02 10 2023  13 12  03.8753 19206.1 -14991.7 -37.9744 24364.5
 02 10 2023  13 13  03.8742 19206.4 -14991.6 -37.9737 24364.6
 02 10 2023  13 14  03.8729 19206.4 -14991.4 -37.9735 24364.5
 02 10 2023  13 15  03.8717 19206.4 -14991.3 -37.9732 24364.4
 02 10 2023  13 16  03.8709 19206.6 -14991.1 -37.9725 24364.5
 02 10 2023  13 17  03.8699 19207.1 -14990.9 -37.9716 24364.7
 02 10 2023  13 18  03.8691 19207.4 -14990.7 -37.9707 24364.8
 02 10 2023  13 19  03.8686 19208.1 -14990.4 -37.9692 24365.2
 02 10 2023  13 20  03.8674 19209.0 -14990.1 -37.9673 24365.7
 02 10 2023  13 21  03.8669 19209.7 -14989.7 -37.9656 24366.0
 02 10 2023  13 22  03.8666 19209.8 -14989.4 -37.9649 24365.9
 02 10 2023  13 23  03.8667 19209.7 -14989.1 -37.9644 24365.7
 02 10 2023  13 24  03.8666 19209.5 -14988.8 -37.9642 24365.4
 02 10 2023  13 25  03.8666 19209.7 -14988.6 -37.9635 24365.3
 02 10 2023  13 26  03.8669 19209.7 -14988.3 -37.9630 24365.1
 02 10 2023  13 27  03.8668 19209.8 -14988.1 -37.9623 24365.1
 02 10 2023  13 28  03.8655 19210.0 -14987.8 -37.9616 24365.1
 02 10 2023  13 29  03.8640 19210.0 -14987.5 -37.9611 24364.9
 02 10 2023  13 30  03.8628 19210.1 -14987.3 -37.9605 24364.9
 02 10 2023  13 31  03.8615 19210.6 -14987.1 -37.9594 24365.1
 02 10 2023  13 32  03.8602 19211.0 -14986.8 -37.9583 24365.3
 02 10 2023  13 33  03.8588 19211.4 -14986.6 -37.9573 24365.4
 02 10 2023  13 34  03.8581 19211.5 -14986.3 -37.9566 24365.4
 02 10 2023  13 35  03.8576 19211.7 -14986.1 -37.9558 24365.4
 02 10 2023  13 36  03.8569 19212.2 -14985.8 -37.9545 24365.6
 02 10 2023  13 37  03.8565 19212.4 -14985.5 -37.9538 24365.6
 02 10 2023  13 38  03.8563 19212.6 -14985.2 -37.9530 24365.5
 02 10 2023  13 39  03.8561 19212.4 -14984.9 -37.9527 24365.2
 02 10 2023  13 40  03.8560 19212.0 -14984.6 -37.9527 24364.7
 02 10 2023  13 41  03.8560 19211.5 -14984.3 -37.9530 24364.1
 02 10 2023  13 42  03.8554 19211.3 -14984.1 -37.9529 24363.8
 02 10 2023  13 43  03.8556 19210.6 -14983.9 -37.9534 24363.2
 02 10 2023  13 44  03.8561 19209.9 -14983.7 -37.9541 24362.5
 02 10 2023  13 45  03.8570 19209.0 -14983.5 -37.9550 24361.7
 02 10 2023  13 46  03.8575 19208.2 -14983.3 -37.9558 24360.9
 02 10 2023  13 47  03.8576 19207.4 -14983.1 -37.9566 24360.2
 02 10 2023  13 48  03.8577 19206.8 -14983.0 -37.9573 24359.6
 02 10 2023  13 49  03.8582 19206.1 -14982.8 -37.9578 24358.9
 02 10 2023  13 50  03.8582 19204.9 -14982.6 -37.9594 24357.9
 02 10 2023  13 51  03.8575 19203.8 -14982.5 -37.9607 24356.9
 02 10 2023  13 52  03.8573 19202.9 -14982.4 -37.9619 24356.2
 02 10 2023  13 53  03.8568 19201.9 -14982.3 -37.9632 24355.3
 02 10 2023  13 54  03.8567 19201.1 -14982.3 -37.9642 24354.7
 02 10 2023  13 55  03.8568 19200.1 -14982.2 -37.9654 24353.9
 02 10 2023  13 56  03.8569 19199.4 -14982.1 -37.9662 24353.2
 02 10 2023  13 57  03.8569 19199.0 -14981.9 -37.9666 24352.8
 02 10 2023  13 58  03.8575 19198.8 -14981.8 -37.9667 24352.5
 02 10 2023  13 59  03.8575 19198.8 -14981.6 -37.9662 24352.5
 02 10 2023  14 00  03.8572 19199.0 -14981.4 -37.9656 24352.5
 02 10 2023  14 01  03.8569 19199.2 -14981.1 -37.9648 24352.5
 02 10 2023  14 02  03.8568 19199.3 -14980.9 -37.9642 24352.4
 02 10 2023  14 03  03.8574 19199.1 -14980.6 -37.9640 24352.1
 02 10 2023  14 04  03.8581 19199.2 -14980.3 -37.9633 24352.0
 02 10 2023  14 05  03.8587 19199.2 -14980.0 -37.9627 24351.8
 02 10 2023  14 06  03.8585 19199.0 -14979.7 -37.9624 24351.5
 02 10 2023  14 07  03.8585 19198.7 -14979.4 -37.9623 24351.0
 02 10 2023  14 08  03.8585 19198.8 -14979.1 -37.9616 24350.9
 02 10 2023  14 09  03.8584 19198.9 -14978.7 -37.9609 24350.7
 02 10 2023  14 10  03.8580 19199.0 -14978.4 -37.9601 24350.6
 02 10 2023  14 11  03.8580 19199.1 -14978.0 -37.9591 24350.5
 02 10 2023  14 12  03.8584 19199.3 -14977.6 -37.9581 24350.4
 02 10 2023  14 13  03.8586 19199.5 -14977.2 -37.9571 24350.3
 02 10 2023  14 14  03.8587 19199.7 -14976.8 -37.9561 24350.2
 02 10 2023  14 15  03.8587 19199.8 -14976.4 -37.9552 24350.0
 02 10 2023  14 16  03.8592 19200.0 -14975.9 -37.9540 24349.9
 02 10 2023  14 17  03.8595 19200.3 -14975.5 -37.9528 24349.8
 02 10 2023  14 18  03.8594 19200.1 -14975.0 -37.9522 24349.4
 02 10 2023  14 19  03.8600 19200.1 -14974.6 -37.9513 24349.2
 02 10 2023  14 20  03.8607 19200.4 -14974.1 -37.9501 24349.1
 02 10 2023  14 21  03.8613 19201.2 -14973.6 -37.9479 24349.4
 02 10 2023  14 22  03.8617 19200.9 -14973.1 -37.9473 24348.9
 02 10 2023  14 23  03.8621 19200.7 -14972.6 -37.9468 24348.5
 02 10 2023  14 24  03.8624 19200.7 -14972.2 -37.9460 24348.2
 02 10 2023  14 25  03.8621 19200.3 -14971.7 -37.9458 24347.6
 02 10 2023  14 26  03.8619 19200.0 -14971.4 -37.9456 24347.1
 02 10 2023  14 27  03.8616 19200.1 -14971.0 -37.9447 24346.9
 02 10 2023  14 28  03.8615 19200.4 -14970.6 -37.9435 24347.0
 02 10 2023  14 29  03.8619 19200.5 -14970.2 -37.9426 24346.8
 02 10 2023  14 30  03.8620 19200.6 -14969.8 -37.9418 24346.6
 02 10 2023  14 31  03.8621 19200.8 -14969.4 -37.9408 24346.5
 02 10 2023  14 32  03.8628 19200.9 -14969.0 -37.9399 24346.3
 02 10 2023  14 33  03.8634 19201.0 -14968.6 -37.9389 24346.2
 02 10 2023  14 34  03.8640 19201.2 -14968.2 -37.9380 24346.1
 02 10 2023  14 35  03.8647 19201.2 -14967.8 -37.9372 24345.9
 02 10 2023  14 36  03.8652 19200.9 -14967.4 -37.9369 24345.4
 02 10 2023  14 37  03.8655 19200.4 -14967.1 -37.9370 24344.8
 02 10 2023  14 38  03.8659 19200.0 -14966.8 -37.9370 24344.3
 02 10 2023  14 39  03.8664 19199.8 -14966.5 -37.9367 24343.9
 02 10 2023  14 40  03.8671 19199.9 -14966.2 -37.9360 24343.8
 02 10 2023  14 41  03.8680 19199.9 -14965.8 -37.9354 24343.7
 02 10 2023  14 42  03.8685 19199.7 -14965.5 -37.9352 24343.2
 02 10 2023  14 43  03.8690 19199.6 -14965.2 -37.9347 24343.0
 02 10 2023  14 44  03.8696 19199.7 -14964.9 -37.9341 24342.9
 02 10 2023  14 45  03.8703 19199.8 -14964.7 -37.9334 24342.8
 02 10 2023  14 46  03.8707 19199.9 -14964.4 -37.9328 24342.7
 02 10 2023  14 47  03.8712 19200.0 -14964.1 -37.9321 24342.7
 02 10 2023  14 48  03.8712 19200.1 -14963.9 -37.9315 24342.6
 02 10 2023  14 49  03.8714 19200.5 -14963.6 -37.9304 24342.8
 02 10 2023  14 50  03.8717 19200.9 -14963.3 -37.9294 24342.9
 02 10 2023  14 51  03.8720 19201.5 -14963.1 -37.9280 24343.2
 02 10 2023  14 52  03.8730 19202.2 -14962.7 -37.9263 24343.6
 02 10 2023  14 53  03.8746 19202.9 -14962.4 -37.9247 24343.9
 02 10 2023  14 54  03.8766 19203.8 -14962.1 -37.9228 24344.4
 02 10 2023  14 55  03.8786 19204.4 -14961.6 -37.9212 24344.6
 02 10 2023  14 56  03.8803 19205.1 -14961.2 -37.9193 24344.9
 02 10 2023  14 57  03.8823 19205.5 -14960.8 -37.9179 24344.9
 02 10 2023  14 58  03.8840 19206.1 -14960.4 -37.9163 24345.2
 02 10 2023  14 59  03.8853 19206.5 -14960.0 -37.9149 24345.2
 02 10 2023  15 00  03.8866 19207.0 -14959.5 -37.9134 24345.4
 02 10 2023  15 01  03.8878 19207.7 -14959.2 -37.9118 24345.6
 02 10 2023  15 02  03.8887 19208.1 -14958.8 -37.9105 24345.8
 02 10 2023  15 03  03.8902 19208.9 -14958.5 -37.9087 24346.2
 02 10 2023  15 04  03.8909 19209.3 -14958.2 -37.9076 24346.3
 02 10 2023  15 05  03.8918 19209.6 -14957.8 -37.9064 24346.4
 02 10 2023  15 06  03.8926 19209.8 -14957.5 -37.9056 24346.3
 02 10 2023  15 07  03.8930 19209.6 -14957.2 -37.9054 24346.0
 02 10 2023  15 08  03.8937 19209.1 -14957.0 -37.9057 24345.5
 02 10 2023  15 09  03.8940 19208.8 -14956.8 -37.9058 24345.1
 02 10 2023  15 10  03.8942 19208.2 -14956.6 -37.9063 24344.5
 02 10 2023  15 11  03.8939 19207.3 -14956.6 -37.9075 24343.8
 02 10 2023  15 12  03.8944 19206.9 -14956.5 -37.9079 24343.4
 02 10 2023  15 13  03.8951 19206.2 -14956.4 -37.9088 24342.8
 02 10 2023  15 14  03.8957 19205.6 -14956.4 -37.9096 24342.3
 02 10 2023  15 15  03.8964 19205.2 -14956.4 -37.9102 24342.0
 02 10 2023  15 16  03.8969 19204.8 -14956.3 -37.9106 24341.6
 02 10 2023  15 17  03.8967 19204.1 -14956.3 -37.9116 24341.0
 02 10 2023  15 18  03.8965 19203.4 -14956.3 -37.9127 24340.5
 02 10 2023  15 19  03.8960 19202.9 -14956.4 -37.9135 24340.2
 02 10 2023  15 20  03.8959 19202.7 -14956.4 -37.9139 24340.0
 02 10 2023  15 21  03.8959 19202.6 -14956.4 -37.9139 24340.0
 02 10 2023  15 22  03.8970 19202.8 -14956.3 -37.9136 24340.1
 02 10 2023  15 23  03.8979 19203.2 -14956.3 -37.9129 24340.4
 02 10 2023  15 24  03.8992 19204.0 -14956.1 -37.9115 24340.9
 02 10 2023  15 25  03.9011 19204.9 -14955.9 -37.9097 24341.4
 02 10 2023  15 26  03.9039 19205.3 -14955.6 -37.9085 24341.6
 02 10 2023  15 27  03.9048 19205.5 -14955.3 -37.9078 24341.6
 02 10 2023  15 28  03.9060 19205.9 -14955.1 -37.9069 24341.7
 02 10 2023  15 29  03.9070 19206.2 -14954.9 -37.9060 24341.9
 02 10 2023  15 30  03.9075 19206.1 -14954.7 -37.9057 24341.7
 02 10 2023  15 31  03.9079 19206.0 -14954.6 -37.9057 24341.5
 02 10 2023  15 32  03.9080 19205.5 -14954.5 -37.9062 24341.1
 02 10 2023  15 33  03.9077 19205.0 -14954.4 -37.9069 24340.6
 02 10 2023  15 34  03.9077 19204.6 -14954.4 -37.9074 24340.3
 02 10 2023  15 35  03.9077 19204.4 -14954.4 -37.9076 24340.2
 02 10 2023  15 36  03.9077 19204.1 -14954.4 -37.9080 24339.9
 02 10 2023  15 37  03.9079 19203.8 -14954.3 -37.9085 24339.6
 02 10 2023  15 38  03.9082 19203.7 -14954.3 -37.9086 24339.5
 02 10 2023  15 39  03.9086 19203.7 -14954.3 -37.9085 24339.6
 02 10 2023  15 40  03.9090 19203.8 -14954.3 -37.9083 24339.6
 02 10 2023  15 41  03.9093 19203.6 -14954.2 -37.9084 24339.4
 02 10 2023  15 42  03.9094 19203.4 -14954.1 -37.9086 24339.2
 02 10 2023  15 43  03.9097 19203.4 -14954.1 -37.9086 24339.2
 02 10 2023  15 44  03.9101 19203.2 -14954.0 -37.9087 24339.0
 02 10 2023  15 45  03.9106 19202.9 -14954.0 -37.9090 24338.7
 02 10 2023  15 46  03.9107 19202.4 -14953.9 -37.9096 24338.3
 02 10 2023  15 47  03.9108 19201.8 -14953.9 -37.9104 24337.8
 02 10 2023  15 48  03.9109 19201.3 -14953.9 -37.9112 24337.4
 02 10 2023  15 49  03.9108 19200.8 -14953.9 -37.9119 24337.0
 02 10 2023  15 50  03.9112 19200.7 -14953.9 -37.9121 24336.9
 02 10 2023  15 51  03.9118 19200.5 -14953.8 -37.9123 24336.7
 02 10 2023  15 52  03.9124 19200.6 -14953.8 -37.9120 24336.8
 02 10 2023  15 53  03.9132 19200.9 -14953.6 -37.9113 24336.9
 02 10 2023  15 54  03.9138 19201.1 -14953.5 -37.9108 24337.0
 02 10 2023  15 55  03.9148 19201.7 -14953.3 -37.9095 24337.3
 02 10 2023  15 56  03.9161 19202.5 -14953.0 -37.9078 24337.7
 02 10 2023  15 57  03.9174 19203.3 -14952.6 -37.9060 24338.1
 02 10 2023  15 58  03.9187 19203.7 -14952.2 -37.9046 24338.2
 02 10 2023  15 59  03.9203 19204.1 -14951.8 -37.9033 24338.3
 02 10 2023  16 00  03.9219 19204.3 -14951.4 -37.9023 24338.2
 02 10 2023  16 01  03.9233 19204.6 -14951.1 -37.9013 24338.3
 02 10 2023  16 02  03.9242 19204.6 -14950.8 -37.9008 24338.1
 02 10 2023  16 03  03.9252 19205.0 -14950.6 -37.8998 24338.3
 02 10 2023  16 04  03.9261 19205.5 -14950.4 -37.8987 24338.6
 02 10 2023  16 05  03.9274 19206.6 -14950.1 -37.8964 24339.3
 02 10 2023  16 06  03.9289 19207.7 -14949.7 -37.8941 24339.9
 02 10 2023  16 07  03.9306 19208.7 -14949.3 -37.8920 24340.4
 02 10 2023  16 08  03.9326 19209.8 -14948.9 -37.8896 24341.1
 02 10 2023  16 09  03.9346 19210.6 -14948.5 -37.8877 24341.4
 02 10 2023  16 10  03.9361 19211.3 -14948.1 -37.8860 24341.7
 02 10 2023  16 11  03.9379 19211.9 -14947.6 -37.8843 24341.9
 02 10 2023  16 12  03.9387 19211.8 -14947.3 -37.8837 24341.6
 02 10 2023  16 13  03.9397 19211.8 -14947.0 -37.8831 24341.4
 02 10 2023  16 14  03.9407 19211.7 -14946.7 -37.8829 24341.2
 02 10 2023  16 15  03.9422 19211.5 -14946.5 -37.8826 24340.9
 02 10 2023  16 16  03.9434 19211.4 -14946.2 -37.8824 24340.7
 02 10 2023  16 17  03.9444 19211.6 -14946.1 -37.8818 24340.7
 02 10 2023  16 18  03.9451 19211.7 -14945.9 -37.8812 24340.7
 02 10 2023  16 19  03.9458 19212.1 -14945.7 -37.8804 24340.9
 02 10 2023  16 20  03.9466 19212.6 -14945.5 -37.8793 24341.1
 02 10 2023  16 21  03.9479 19213.3 -14945.3 -37.8779 24341.6
 02 10 2023  16 22  03.9498 19214.6 -14945.0 -37.8755 24342.4
 02 10 2023  16 23  03.9518 19215.7 -14944.7 -37.8733 24343.1
 02 10 2023  16 24  03.9528 19216.2 -14944.4 -37.8720 24343.3
 02 10 2023  16 25  03.9535 19216.2 -14944.1 -37.8715 24343.1
 02 10 2023  16 26  03.9544 19216.2 -14943.9 -37.8711 24343.0
 02 10 2023  16 27  03.9551 19216.2 -14943.8 -37.8709 24342.9
 02 10 2023  16 28  03.9559 19216.2 -14943.6 -37.8705 24342.8
 02 10 2023  16 29  03.9564 19216.0 -14943.4 -37.8705 24342.6
 02 10 2023  16 30  03.9575 19216.2 -14943.2 -37.8699 24342.6
 02 10 2023  16 31  03.9586 19216.4 -14943.0 -37.8692 24342.6
 02 10 2023  16 32  03.9600 19216.5 -14942.8 -37.8686 24342.6
 02 10 2023  16 33  03.9612 19217.0 -14942.6 -37.8677 24342.8
 02 10 2023  16 34  03.9630 19217.4 -14942.3 -37.8665 24343.0
 02 10 2023  16 35  03.9642 19217.5 -14942.1 -37.8659 24343.0
 02 10 2023  16 36  03.9653 19217.8 -14941.9 -37.8650 24343.1
 02 10 2023  16 37  03.9673 19218.3 -14941.6 -37.8639 24343.3
 02 10 2023  16 38  03.9680 19217.9 -14941.4 -37.8640 24342.9
 02 10 2023  16 39  03.9690 19218.0 -14941.3 -37.8637 24342.8
 02 10 2023  16 40  03.9707 19218.3 -14941.1 -37.8630 24342.9
 02 10 2023  16 41  03.9707 19218.3 -14940.9 -37.8625 24342.8
 02 10 2023  16 42  03.9714 19218.2 -14940.8 -37.8624 24342.7
 02 10 2023  16 43  03.9722 19217.8 -14940.9 -37.8632 24342.4
 02 10 2023  16 44  03.9725 19217.8 -14940.9 -37.8633 24342.4
 02 10 2023  16 45  03.9728 19218.8 -14940.8 -37.8616 24343.2
 02 10 2023  16 46  03.9742 19219.2 -14940.6 -37.8607 24343.4
 02 10 2023  16 47  03.9746 19219.0 -14940.2 -37.8602 24343.0
 02 10 2023  16 48  03.9749 19218.8 -14940.1 -37.8603 24342.7
 02 10 2023  16 49  03.9764 19219.1 -14940.1 -37.8600 24343.0
 02 10 2023  16 50  03.9778 19219.2 -14940.3 -37.8600 24343.2
 02 10 2023  16 51  03.9784 19219.2 -14946.1 -37.8708 24346.7
 02 10 2023  16 52  03.9792 19219.0 -14952.6 -37.8832 24350.6
 02 10 2023  16 53  03.9799 19218.8 -14949.0 -37.8768 24348.2
 02 10 2023  16 54  03.9809 19218.7 -14950.2 -37.8791 24348.8
 02 10 2023  16 55  03.9816 19218.8 -14942.1 -37.8640 24344.0
 02 10 2023  16 56  03.9829 19219.1 -14973.7 -37.9222 24363.6
 02 10 2023  16 57  03.9839 19219.1 -14982.0 -37.9377 24368.7
 02 10 2023  16 58  03.9845 19219.1 -14984.9 -37.9430 24370.5
 02 10 2023  16 59  03.9853 19219.1 -14967.8 -37.9112 24360.0
 02 10 2023  17 00  03.9871 19219.6 -14953.9 -37.8849 24351.8
 02 10 2023  17 01  03.9897 19219.7 -14943.5 -37.8653 24345.5
 02 10 2023  17 02  03.9908 19219.6 -14946.8 -37.8716 24347.5
 02 10 2023  17 03  03.9921 19219.5 -14963.1 -37.9020 24357.4
 02 10 2023  17 04  03.9919 19219.0 -14956.3 -37.8901 24352.9
 02 10 2023  17 05  03.9930 19219.4 -14944.5 -37.8677 24345.9
 02 10 2023  17 06  03.9941 19219.1 -14941.2 -37.8620 24343.7
 02 10 2023  17 07  03.9947 19219.0 -14940.1 -37.8600 24342.9
 02 10 2023  17 08  03.9942 19218.7 -14940.0 -37.8602 24342.6
 02 10 2023  17 09  03.9945 19218.6 -14940.1 -37.8605 24342.6
 02 10 2023  17 10  03.9932 19217.1 -14940.2 -37.8630 24341.4
 02 10 2023  17 11  03.9923 19216.6 -14940.4 -37.8641 24341.2
 02 10 2023  17 12  03.9925 19219.1 -14940.5 -37.8605 24343.2
 02 10 2023  17 13  03.9928 19217.2 -14940.9 -37.8640 24341.9
 02 10 2023  17 14  03.9933 19217.8 -14940.7 -37.8629 24342.3
 02 10 2023  17 15  03.9945 19218.0 -14941.4 -37.8639 24342.9
 02 10 2023  17 16  03.9959 19217.7 -14977.9 -37.9321 24365.1
 02 10 2023  17 17  03.9975 19218.0 -14996.8 -37.9666 24376.9
 02 10 2023  17 18  03.9988 19218.0 -14992.9 -37.9595 24374.6
 02 10 2023  17 19  03.9988 19217.9 -14993.1 -37.9599 24374.6
 02 10 2023  17 20  03.9983 19217.6 -14992.2 -37.9588 24373.8
 02 10 2023  17 21  03.9999 19219.0 -14992.9 -37.9580 24375.3
 02 10 2023  17 22  04.0015 19218.4 -14992.6 -37.9583 24374.7
 02 10 2023  17 23  04.0027 19218.5 -14996.2 -37.9648 24377.0
 02 10 2023  17 24  04.0036 19218.6 -14996.8 -37.9657 24377.4
 02 10 2023  17 25  04.0043 19218.5 -14999.0 -37.9699 24378.7
 02 10 2023  17 26  04.0046 19218.4 -14998.2 -37.9688 24378.1
 02 10 2023  17 27  04.0044 19218.0 -14993.2 -37.9599 24374.7
 02 10 2023  17 28  04.0042 19217.4 -14992.8 -37.9601 24374.0
 02 10 2023  17 29  04.0031 19216.4 -14975.8 -37.9300 24362.8
 02 10 2023  17 30  04.0017 19215.5 -14963.3 -37.9081 24354.4
 02 10 2023  17 31  04.0014 19215.2 -14963.5 -37.9089 24354.2
 02 10 2023  17 32  04.0015 19215.2 -14974.7 -37.9299 24361.1
 02 10 2023  17 33  04.0008 19214.6 -14964.3 -37.9112 24354.3
 02 10 2023  17 34  04.0004 19214.2 -14961.1 -37.9059 24352.0
 02 10 2023  17 35  04.0008 19214.0 -14957.9 -37.9003 24349.8
 02 10 2023  17 36  04.0007 19213.6 -14949.6 -37.8855 24344.4
 02 10 2023  17 37  04.0025 19214.1 -14946.6 -37.8793 24343.0
 02 10 2023  17 38  04.0046 19214.7 -14947.4 -37.8798 24344.0
 02 10 2023  17 39  04.0074 19215.9 -14946.4 -37.8762 24344.3
 02 10 2023  17 40  04.0086 19216.5 -14945.5 -37.8737 24344.3
 02 10 2023  17 41  04.0082 19216.3 -14945.3 -37.8736 24344.0
 02 10 2023  17 42  04.0070 19215.2 -14945.3 -37.8752 24343.1
 02 10 2023  17 43  04.0066 19214.4 -14945.8 -37.8771 24342.7
 02 10 2023  17 44  04.0073 19214.1 -14946.5 -37.8790 24343.0
 02 10 2023  17 45  04.0086 19214.5 -14947.3 -37.8800 24343.8
 02 10 2023  17 46  04.0096 19214.8 -14948.6 -37.8819 24344.8
 02 10 2023  17 47  04.0111 19215.4 -14949.1 -37.8820 24345.6
 02 10 2023  17 48  04.0133 19216.1 -14950.2 -37.8829 24346.8
 02 10 2023  17 49  04.0147 19216.3 -14950.3 -37.8828 24347.0
 02 10 2023  17 50  04.0161 19216.6 -14952.2 -37.8859 24348.5
 02 10 2023  17 51  04.0168 19216.7 -14953.5 -37.8883 24349.3
 02 10 2023  17 52  04.0178 19216.8 -14956.6 -37.8938 24351.3
 02 10 2023  17 53  04.0193 19217.2 -14969.1 -37.9165 24359.3
 02 10 2023  17 54  04.0203 19217.5 -14991.5 -37.9576 24373.3
 02 10 2023  17 55  04.0218 19218.0 -14947.0 -37.8742 24346.4
 02 10 2023  17 56  04.0226 19218.2 -14946.8 -37.8737 24346.4
 02 10 2023  17 57  04.0231 19218.0 -14947.3 -37.8748 24346.5
 02 10 2023  17 58  04.0231 19217.7 -14970.0 -37.9174 24360.2
 02 10 2023  17 59  04.0233 19217.4 -15012.9 -37.9973 24386.4
 02 10 2023  18 00  04.0230 19217.2 -15013.5 -37.9989 24386.6
 02 10 2023  18 01  04.0230 19217.1 -15013.7 -37.9993 24386.6
 02 10 2023  18 02  04.0232 19216.8 -15012.1 -37.9966 24385.4
 02 10 2023  18 03  04.0225 19216.3 -15008.0 -37.9898 24382.5
 02 10 2023  18 04  04.0234 19216.5 -15007.3 -37.9882 24382.2
 02 10 2023  18 05  04.0243 19216.6 -14997.4 -37.9698 24376.2
 02 10 2023  18 06  04.0240 19216.5 -14982.9 -37.9432 24367.2
 02 10 2023  18 07  04.0261 19217.0 -14955.0 -37.8905 24350.5
 02 10 2023  18 08  04.0273 19217.2 -14948.6 -37.8784 24346.7
 02 10 2023  18 09  04.0291 19217.8 -14948.6 -37.8775 24347.1
 02 10 2023  18 10  04.0313 19218.7 -14948.5 -37.8762 24347.8
 02 10 2023  18 11  04.0342 19219.8 -14948.4 -37.8743 24348.7
 02 10 2023  18 12  04.0384 19221.3 -14948.2 -37.8719 24349.7
 02 10 2023  18 13  04.0421 19222.4 -14947.9 -37.8695 24350.4
 02 10 2023  18 14  04.0439 19222.9 -14947.6 -37.8683 24350.6
 02 10 2023  18 15  04.0458 19223.6 -14947.4 -37.8670 24351.0
 02 10 2023  18 16  04.0492 19224.9 -14947.2 -37.8647 24351.9
 02 10 2023  18 17  04.0499 19225.1 -14947.0 -37.8641 24352.0
 02 10 2023  18 18  04.0509 19225.0 -14946.9 -37.8641 24351.8
 02 10 2023  18 19  04.0513 19224.4 -14946.9 -37.8649 24351.3
 02 10 2023  18 20  04.0511 19223.8 -14947.0 -37.8658 24351.0
 02 10 2023  18 21  04.0515 19224.3 -14947.1 -37.8655 24351.4
 02 10 2023  18 22  04.0518 19224.6 -14947.2 -37.8651 24351.6
 02 10 2023  18 23  04.0510 19224.0 -14947.3 -37.8662 24351.3
 02 10 2023  18 24  04.0517 19223.8 -14947.5 -37.8668 24351.2
 02 10 2023  18 25  04.0530 19223.6 -14947.6 -37.8673 24351.2
 02 10 2023  18 26  04.0538 19223.3 -14947.8 -37.8681 24351.0
 02 10 2023  18 27  04.0534 19222.9 -14948.0 -37.8690 24350.8
 02 10 2023  18 28  04.0531 19222.4 -14948.2 -37.8701 24350.6
 02 10 2023  18 29  04.0532 19222.1 -14948.4 -37.8710 24350.5
 02 10 2023  18 30  04.0521 19221.1 -14948.7 -37.8730 24349.9
 02 10 2023  18 31  04.0523 19220.2 -14949.1 -37.8750 24349.3
 02 10 2023  18 32  04.0525 19219.8 -14949.4 -37.8761 24349.2
 02 10 2023  18 33  04.0520 19219.0 -14949.7 -37.8778 24348.8
 02 10 2023  18 34  04.0524 19218.5 -14949.9 -37.8790 24348.5
 02 10 2023  18 35  04.0512 19217.7 -14950.3 -37.8808 24348.1
 02 10 2023  18 36  04.0508 19217.2 -14950.7 -37.8822 24348.0
 02 10 2023  18 37  04.0512 19217.1 -14951.1 -37.8832 24348.1
 02 10 2023  18 38  04.0511 19216.7 -14951.4 -37.8844 24348.0
 02 10 2023  18 39  04.0502 19216.1 -14951.8 -37.8859 24347.8
 02 10 2023  18 40  04.0492 19215.5 -14952.4 -37.8880 24347.7
 02 10 2023  18 41  04.0493 19215.0 -14953.7 -37.8910 24348.1
 02 10 2023  18 42  04.0473 19214.2 -14953.8 -37.8924 24347.6
 02 10 2023  18 43  04.0473 19213.9 -14954.2 -37.8935 24347.6
 02 10 2023  18 44  04.0472 19213.8 -14954.1 -37.8936 24347.4
 02 10 2023  18 45  04.0466 19213.5 -14954.1 -37.8941 24347.1
 02 10 2023  18 46  04.0449 19212.9 -14954.5 -37.8956 24347.0
 02 10 2023  18 47  04.0431 19212.1 -14954.9 -37.8975 24346.5
 02 10 2023  18 48  04.0422 19211.4 -14955.4 -37.8993 24346.3
 02 10 2023  18 49  04.0400 19210.4 -14955.8 -37.9017 24345.7
 02 10 2023  18 50  04.0373 19209.0 -14956.4 -37.9047 24345.0
 02 10 2023  18 51  04.0360 19208.4 -14957.0 -37.9066 24344.9
 02 10 2023  18 52  04.0342 19207.7 -14957.5 -37.9087 24344.6
 02 10 2023  18 53  04.0330 19207.2 -14958.0 -37.9104 24344.6
 02 10 2023  18 54  04.0325 19206.9 -14958.5 -37.9117 24344.7
 02 10 2023  18 55  04.0319 19207.3 -14959.3 -37.9126 24345.4
 02 10 2023  18 56  04.0302 19205.8 -14959.4 -37.9150 24344.3
 02 10 2023  18 57  04.0284 19205.3 -14959.9 -37.9165 24344.2
 02 10 2023  18 58  04.0266 19204.8 -14960.4 -37.9182 24344.1
 02 10 2023  18 59  04.0251 19204.5 -14960.8 -37.9196 24344.1
 02 10 2023  19 00  04.0239 19204.3 -14961.2 -37.9205 24344.3
 02 10 2023  19 01  04.0230 19204.2 -14961.5 -37.9212 24344.4
 02 10 2023  19 02  04.0224 19204.1 -14961.9 -37.9220 24344.5
 02 10 2023  19 03  04.0221 19204.1 -14962.1 -37.9225 24344.6
 02 10 2023  19 04  04.0212 19203.8 -14962.4 -37.9235 24344.6
 02 10 2023  19 05  04.0202 19203.4 -14962.9 -37.9249 24344.6
 02 10 2023  19 06  04.0196 19203.2 -14963.3 -37.9258 24344.7
 02 10 2023  19 07  04.0189 19203.2 -14963.5 -37.9264 24344.8
 02 10 2023  19 08  04.0185 19203.2 -14963.7 -37.9267 24344.9
 02 10 2023  19 09  04.0177 19203.1 -14963.9 -37.9273 24345.0
 02 10 2023  19 10  04.0173 19203.1 -14964.1 -37.9276 24345.1
 02 10 2023  19 11  04.0165 19203.1 -14964.3 -37.9280 24345.2
 02 10 2023  19 12  04.0161 19203.2 -14964.5 -37.9282 24345.4
 02 10 2023  19 13  04.0157 19203.0 -14964.7 -37.9288 24345.4
 02 10 2023  19 14  04.0158 19203.0 -14964.9 -37.9292 24345.6
 02 10 2023  19 15  04.0161 19203.1 -14965.1 -37.9295 24345.7
 02 10 2023  19 16  04.0167 19203.1 -14965.2 -37.9295 24345.7
 02 10 2023  19 17  04.0167 19203.1 -14965.3 -37.9298 24345.8
 02 10 2023  19 18  04.0162 19202.9 -14965.5 -37.9305 24345.8
 02 10 2023  19 19  04.0160 19203.1 -14966.8 -37.9326 24346.7
 02 10 2023  19 20  04.0160 19203.2 -14967.1 -37.9331 24347.0
 02 10 2023  19 21  04.0157 19203.3 -14968.5 -37.9354 24348.0
 02 10 2023  19 22  04.0159 19203.4 -14969.3 -37.9368 24348.5
 02 10 2023  19 23  04.0154 19203.2 -14967.1 -37.9329 24347.0
 02 10 2023  19 24  04.0146 19203.0 -14966.7 -37.9326 24346.6
 02 10 2023  19 25  04.0142 19202.8 -14966.5 -37.9324 24346.4
 02 10 2023  19 26  04.0141 19203.0 -14966.6 -37.9323 24346.5
 02 10 2023  19 27  04.0143 19203.2 -14966.6 -37.9321 24346.7
 02 10 2023  19 28  04.0151 19203.6 -14966.6 -37.9315 24347.0
 02 10 2023  19 29  04.0154 19204.0 -14966.7 -37.9311 24347.3
 02 10 2023  19 30  04.0157 19204.3 -14966.7 -37.9306 24347.6
 02 10 2023  19 31  04.0159 19204.6 -14966.7 -37.9301 24347.9
 02 10 2023  19 32  04.0162 19204.9 -14966.7 -37.9298 24348.1
 02 10 2023  19 33  04.0170 19205.1 -14966.7 -37.9295 24348.3
 02 10 2023  19 34  04.0178 19205.3 -14966.7 -37.9292 24348.4
 02 10 2023  19 35  04.0185 19205.7 -14966.7 -37.9286 24348.7
 02 10 2023  19 36  04.0192 19206.1 -14966.6 -37.9279 24349.0
 02 10 2023  19 37  04.0194 19206.2 -14966.6 -37.9277 24349.1
 02 10 2023  19 38  04.0201 19206.7 -14966.6 -37.9271 24349.5
 02 10 2023  19 39  04.0212 19207.1 -14966.6 -37.9265 24349.8
 02 10 2023  19 40  04.0214 19207.2 -14966.6 -37.9263 24349.9
 02 10 2023  19 41  04.0216 19207.2 -14966.6 -37.9264 24349.9
 02 10 2023  19 42  04.0222 19207.3 -14966.7 -37.9263 24350.0
 02 10 2023  19 43  04.0226 19207.4 -14966.7 -37.9262 24350.1
 02 10 2023  19 44  04.0228 19207.4 -14966.8 -37.9263 24350.1
 02 10 2023  19 45  04.0231 19207.4 -14966.8 -37.9264 24350.2
 02 10 2023  19 46  04.0228 19207.3 -14966.9 -37.9268 24350.1
 02 10 2023  19 47  04.0229 19207.1 -14967.0 -37.9272 24350.1
 02 10 2023  19 48  04.0230 19207.0 -14967.1 -37.9275 24350.1
 02 10 2023  19 49  04.0231 19207.0 -14967.3 -37.9279 24350.1
 02 10 2023  19 50  04.0227 19206.9 -14967.4 -37.9283 24350.1
 02 10 2023  19 51  04.0224 19206.7 -14967.6 -37.9288 24350.0
 02 10 2023  19 52  04.0229 19206.8 -14967.7 -37.9289 24350.2
 02 10 2023  19 53  04.0230 19206.7 -14967.8 -37.9293 24350.2
 02 10 2023  19 54  04.0233 19206.7 -14968.0 -37.9296 24350.3
 02 10 2023  19 55  04.0228 19206.4 -14968.1 -37.9303 24350.2
 02 10 2023  19 56  04.0225 19206.0 -14968.3 -37.9312 24350.0
 02 10 2023  19 57  04.0224 19205.8 -14968.5 -37.9318 24350.0
 02 10 2023  19 58  04.0225 19205.5 -14968.7 -37.9326 24349.8
 02 10 2023  19 59  04.0218 19205.1 -14968.9 -37.9337 24349.6
 02 10 2023  20 00  04.0216 19204.8 -14969.2 -37.9345 24349.6
 02 10 2023  20 01  04.0218 19204.4 -14969.4 -37.9355 24349.4
 02 10 2023  20 02  04.0215 19204.3 -14969.6 -37.9361 24349.4
 02 10 2023  20 03  04.0209 19203.9 -14969.9 -37.9372 24349.3
 02 10 2023  20 04  04.0204 19203.4 -14970.2 -37.9385 24349.1
 02 10 2023  20 05  04.0190 19203.1 -14970.5 -37.9394 24349.1
 02 10 2023  20 06  04.0182 19203.4 -14970.7 -37.9395 24349.4
 02 10 2023  20 07  04.0173 19203.2 -14970.9 -37.9401 24349.4
 02 10 2023  20 08  04.0169 19203.5 -14970.9 -37.9396 24349.5
 02 10 2023  20 09  04.0163 19203.2 -14971.5 -37.9411 24349.7
 02 10 2023  20 10  04.0157 19203.3 -14971.7 -37.9414 24350.0
 02 10 2023  20 11  04.0158 19203.4 -14971.9 -37.9417 24350.1
 02 10 2023  20 12  04.0156 19203.3 -14972.1 -37.9421 24350.2
 02 10 2023  20 13  04.0151 19203.3 -14972.3 -37.9425 24350.3
 02 10 2023  20 14  04.0149 19203.3 -14972.5 -37.9428 24350.4
 02 10 2023  20 15  04.0137 19203.2 -14972.7 -37.9433 24350.5
 02 10 2023  20 16  04.0137 19203.3 -14972.9 -37.9436 24350.6
 02 10 2023  20 17  04.0127 19203.3 -14973.1 -37.9440 24350.8
 02 10 2023  20 18  04.0121 19203.1 -14973.3 -37.9446 24350.7
 02 10 2023  20 19  04.0118 19203.2 -14973.4 -37.9448 24350.9
 02 10 2023  20 20  04.0120 19203.5 -14973.6 -37.9447 24351.2
 02 10 2023  20 21  04.0123 19203.5 -14973.8 -37.9450 24351.3
 02 10 2023  20 22  04.0120 19203.3 -14973.9 -37.9456 24351.3
 02 10 2023  20 23  04.0124 19203.2 -14974.1 -37.9460 24351.4
 02 10 2023  20 24  04.0120 19202.9 -14974.2 -37.9467 24351.1
 02 10 2023  20 25  04.0120 19202.6 -14974.4 -37.9475 24351.0
 02 10 2023  20 26  04.0112 19202.1 -14974.6 -37.9484 24350.8
 02 10 2023  20 27  04.0101 19201.8 -14974.8 -37.9494 24350.6
 02 10 2023  20 28  04.0093 19201.5 -14975.0 -37.9501 24350.5
 02 10 2023  20 29  04.0086 19201.4 -14975.2 -37.9506 24350.6
 02 10 2023  20 30  04.0084 19201.6 -14975.4 -37.9508 24350.8
 02 10 2023  20 31  04.0081 19201.7 -14975.6 -37.9509 24351.1
 02 10 2023  20 32  04.0086 19202.0 -14975.7 -37.9507 24351.3
 02 10 2023  20 33  04.0091 19201.7 -14975.8 -37.9513 24351.2
 02 10 2023  20 34  04.0081 19201.8 -14975.9 -37.9514 24351.3
 02 10 2023  20 35  04.0078 19201.8 -14976.0 -37.9516 24351.4
 02 10 2023  20 36  04.0059 19201.2 -14976.2 -37.9528 24351.1
 02 10 2023  20 37  04.0048 19201.0 -14976.5 -37.9535 24351.1
 02 10 2023  20 38  04.0039 19200.7 -14976.8 -37.9546 24350.9
 02 10 2023  20 39  04.0034 19200.2 -14977.0 -37.9557 24350.8
 02 10 2023  20 40  04.0036 19200.1 -14977.3 -37.9564 24350.8
 02 10 2023  20 41  04.0038 19200.0 -14977.4 -37.9568 24350.8
 02 10 2023  20 42  04.0042 19199.6 -14977.6 -37.9576 24350.6
 02 10 2023  20 43  04.0036 19199.2 -14977.7 -37.9584 24350.4
 02 10 2023  20 44  04.0032 19199.0 -14977.9 -37.9591 24350.3
 02 10 2023  20 45  04.0019 19198.6 -14978.1 -37.9600 24350.1
 02 10 2023  20 46  04.0009 19198.4 -14978.3 -37.9607 24350.1
 02 10 2023  20 47  04.0002 19198.1 -14978.5 -37.9616 24350.0
 02 10 2023  20 48  03.9995 19197.9 -14978.7 -37.9621 24350.0
 02 10 2023  20 49  03.9996 19198.1 -14978.9 -37.9623 24350.2
 02 10 2023  20 50  04.0001 19198.4 -14979.0 -37.9620 24350.6
 02 10 2023  20 51  04.0004 19198.7 -14979.1 -37.9618 24350.8
 02 10 2023  20 52  04.0012 19199.1 -14979.1 -37.9613 24351.2
 02 10 2023  20 53  04.0011 19199.4 -14979.2 -37.9609 24351.4
 02 10 2023  20 54  04.0014 19199.6 -14979.2 -37.9607 24351.6
 02 10 2023  20 55  04.0013 19199.7 -14979.2 -37.9605 24351.7
 02 10 2023  20 56  04.0012 19199.9 -14979.3 -37.9603 24351.9
 02 10 2023  20 57  04.0010 19199.8 -14979.3 -37.9606 24351.9
 02 10 2023  20 58  04.0008 19199.8 -14979.4 -37.9607 24351.9
 02 10 2023  20 59  03.9999 19199.6 -14979.5 -37.9611 24351.8
 02 10 2023  21 00  03.9996 19199.6 -14979.5 -37.9612 24351.8
 02 10 2023  21 01  03.9985 19199.6 -14979.5 -37.9612 24351.8
 02 10 2023  21 02  03.9982 19199.4 -14979.7 -37.9618 24351.8
 02 10 2023  21 03  03.9979 19199.2 -14979.9 -37.9624 24351.7
 02 10 2023  21 04  03.9980 19199.3 -14980.0 -37.9626 24351.9
 02 10 2023  21 05  03.9983 19199.6 -14980.2 -37.9626 24352.2
 02 10 2023  21 06  03.9988 19199.6 -14980.3 -37.9627 24352.3
 02 10 2023  21 07  03.9991 19199.9 -14980.3 -37.9622 24352.5
 02 10 2023  21 08  03.9990 19199.7 -14980.4 -37.9628 24352.4
 02 10 2023  21 09  03.9989 19199.6 -14980.5 -37.9632 24352.4
 02 10 2023  21 10  03.9988 19199.7 -14980.5 -37.9631 24352.5
 02 10 2023  21 11  03.9992 19199.6 -14980.7 -37.9634 24352.5
 02 10 2023  21 12  03.9996 19199.6 -14980.7 -37.9635 24352.5
 02 10 2023  21 13  03.9991 19199.3 -14980.8 -37.9640 24352.4
 02 10 2023  21 14  03.9982 19198.8 -14980.9 -37.9650 24352.0
 02 10 2023  21 15  03.9975 19198.4 -14981.1 -37.9660 24351.8
 02 10 2023  21 16  03.9979 19198.6 -14981.2 -37.9658 24352.1
 02 10 2023  21 17  03.9982 19198.7 -14981.3 -37.9658 24352.2
 02 10 2023  21 18  03.9984 19198.7 -14981.4 -37.9660 24352.2
 02 10 2023  21 19  03.9981 19198.7 -14981.5 -37.9662 24352.3
 02 10 2023  21 20  03.9983 19198.7 -14981.5 -37.9663 24352.3
 02 10 2023  21 21  03.9985 19198.7 -14981.6 -37.9664 24352.4
 02 10 2023  21 22  03.9983 19198.7 -14981.7 -37.9666 24352.4
 02 10 2023  21 23  03.9979 19198.6 -14981.7 -37.9668 24352.4
 02 10 2023  21 24  03.9970 19198.4 -14981.8 -37.9673 24352.2
 02 10 2023  21 25  03.9968 19198.3 -14981.9 -37.9676 24352.2
 02 10 2023  21 26  03.9962 19198.1 -14982.0 -37.9680 24352.2
 02 10 2023  21 27  03.9960 19198.1 -14982.1 -37.9683 24352.2
 02 10 2023  21 28  03.9955 19197.9 -14982.2 -37.9688 24352.1
 02 10 2023  21 29  03.9944 19197.3 -14982.3 -37.9698 24351.7
 02 10 2023  21 30  03.9935 19197.0 -14982.5 -37.9705 24351.6
 02 10 2023  21 31  03.9931 19196.8 -14982.6 -37.9710 24351.5
 02 10 2023  21 32  03.9926 19196.6 -14982.7 -37.9716 24351.4
 02 10 2023  21 33  03.9930 19196.4 -14982.8 -37.9720 24351.3
 02 10 2023  21 34  03.9924 19196.4 -14982.9 -37.9723 24351.4
 02 10 2023  21 35  03.9921 19196.7 -14983.0 -37.9718 24351.7
 02 10 2023  21 36  03.9930 19197.0 -14983.1 -37.9716 24351.9
 02 10 2023  21 37  03.9933 19197.4 -14983.1 -37.9712 24352.3
 02 10 2023  21 38  03.9931 19197.5 -14983.1 -37.9708 24352.4
 02 10 2023  21 39  03.9928 19197.4 -14983.1 -37.9711 24352.3
 02 10 2023  21 40  03.9921 19197.3 -14983.2 -37.9713 24352.3
 02 10 2023  21 41  03.9916 19197.3 -14983.3 -37.9715 24352.3
 02 10 2023  21 42  03.9908 19197.2 -14983.4 -37.9718 24352.3
 02 10 2023  21 43  03.9903 19197.0 -14983.4 -37.9723 24352.2
 02 10 2023  21 44  03.9902 19197.0 -14983.5 -37.9725 24352.2
 02 10 2023  21 45  03.9902 19197.2 -14983.6 -37.9724 24352.4
 02 10 2023  21 46  03.9904 19197.2 -14983.7 -37.9724 24352.5
 02 10 2023  21 47  03.9906 19197.3 -14983.8 -37.9725 24352.6
 02 10 2023  21 48  03.9905 19197.4 -14983.8 -37.9724 24352.8
 02 10 2023  21 49  03.9911 19197.8 -14983.8 -37.9719 24353.0
 02 10 2023  21 50  03.9914 19198.0 -14983.9 -37.9717 24353.2
 02 10 2023  21 51  03.9918 19198.2 -14983.9 -37.9713 24353.4
 02 10 2023  21 52  03.9918 19198.5 -14983.8 -37.9709 24353.6
 02 10 2023  21 53  03.9917 19198.5 -14983.9 -37.9710 24353.6
 02 10 2023  21 54  03.9915 19198.5 -14983.9 -37.9710 24353.6
 02 10 2023  21 55  03.9913 19198.4 -14984.0 -37.9712 24353.6
 02 10 2023  21 56  03.9909 19198.4 -14984.0 -37.9714 24353.6
 02 10 2023  21 57  03.9909 19198.4 -14984.1 -37.9715 24353.7
 02 10 2023  21 58  03.9903 19198.3 -14984.2 -37.9717 24353.6
 02 10 2023  21 59  03.9888 19197.7 -14984.3 -37.9728 24353.2
 02 10 2023  22 00  03.9873 19197.0 -14984.5 -37.9743 24352.8
 02 10 2023  22 01  03.9861 19196.4 -14984.7 -37.9755 24352.5
 02 10 2023  22 02  03.9864 19196.5 -14985.0 -37.9759 24352.7
 02 10 2023  22 03  03.9847 19195.9 -14985.0 -37.9768 24352.3
 02 10 2023  22 04  03.9845 19196.2 -14985.1 -37.9766 24352.5
 02 10 2023  22 05  03.9838 19196.3 -14985.2 -37.9765 24352.7
 02 10 2023  22 06  03.9826 19195.7 -14985.3 -37.9776 24352.3
 02 10 2023  22 07  03.9815 19195.5 -14985.4 -37.9781 24352.2
 02 10 2023  22 08  03.9811 19195.5 -14985.5 -37.9784 24352.2
 02 10 2023  22 09  03.9808 19195.5 -14985.6 -37.9786 24352.3
 02 10 2023  22 10  03.9798 19195.5 -14985.7 -37.9786 24352.4
 02 10 2023  22 11  03.9794 19195.6 -14985.7 -37.9786 24352.4
 02 10 2023  22 12  03.9786 19195.3 -14985.8 -37.9792 24352.3
 02 10 2023  22 13  03.9779 19195.1 -14985.9 -37.9796 24352.2
 02 10 2023  22 14  03.9774 19194.8 -14985.9 -37.9801 24352.0
 02 10 2023  22 15  03.9768 19194.5 -14986.0 -37.9807 24351.8
 02 10 2023  22 16  03.9763 19194.6 -14986.1 -37.9807 24351.9
 02 10 2023  22 17  03.9761 19194.5 -14986.2 -37.9809 24351.9
 02 10 2023  22 18  03.9754 19194.6 -14986.2 -37.9807 24352.0
 02 10 2023  22 19  03.9749 19194.8 -14986.1 -37.9805 24352.1
 02 10 2023  22 20  03.9749 19195.0 -14986.2 -37.9803 24352.2
 02 10 2023  22 21  03.9748 19195.1 -14986.1 -37.9801 24352.3
 02 10 2023  22 22  03.9745 19195.1 -14986.2 -37.9802 24352.3
 02 10 2023  22 23  03.9742 19195.1 -14986.2 -37.9801 24352.4
 02 10 2023  22 24  03.9739 19195.2 -14986.2 -37.9800 24352.4
 02 10 2023  22 25  03.9740 19195.3 -14986.1 -37.9797 24352.5
 02 10 2023  22 26  03.9743 19195.0 -14986.2 -37.9803 24352.3
 02 10 2023  22 27  03.9742 19194.3 -14986.3 -37.9814 24351.8
 02 10 2023  22 28  03.9737 19194.2 -14986.3 -37.9816 24351.7
 02 10 2023  22 29  03.9734 19194.1 -14986.3 -37.9817 24351.7
 02 10 2023  22 30  03.9728 19193.9 -14986.4 -37.9822 24351.5
 02 10 2023  22 31  03.9726 19193.8 -14986.3 -37.9822 24351.5
 02 10 2023  22 32  03.9725 19193.9 -14986.3 -37.9821 24351.5
 02 10 2023  22 33  03.9729 19194.0 -14986.3 -37.9821 24351.5
 02 10 2023  22 34  03.9729 19194.0 -14986.3 -37.9819 24351.6
 02 10 2023  22 35  03.9729 19194.1 -14986.2 -37.9815 24351.6
 02 10 2023  22 36  03.9728 19194.2 -14986.1 -37.9814 24351.6
 02 10 2023  22 37  03.9726 19194.1 -14986.1 -37.9813 24351.5
 02 10 2023  22 38  03.9721 19193.8 -14986.1 -37.9819 24351.3
 02 10 2023  22 39  03.9719 19193.8 -14986.2 -37.9819 24351.3
 02 10 2023  22 40  03.9718 19194.1 -14986.1 -37.9814 24351.5
 02 10 2023  22 41  03.9717 19194.3 -14986.0 -37.9810 24351.6
 02 10 2023  22 42  03.9716 19194.5 -14985.9 -37.9806 24351.7
 02 10 2023  22 43  03.9715 19194.5 -14985.9 -37.9804 24351.7
 02 10 2023  22 44  03.9715 19194.6 -14985.8 -37.9801 24351.8
 02 10 2023  22 45  03.9714 19194.9 -14985.8 -37.9797 24352.0
 02 10 2023  22 46  03.9716 19195.2 -14985.7 -37.9792 24352.1
 02 10 2023  22 47  03.9712 19195.2 -14985.7 -37.9791 24352.1
 02 10 2023  22 48  03.9713 19195.6 -14985.6 -37.9784 24352.4
 02 10 2023  22 49  03.9711 19195.9 -14985.5 -37.9778 24352.6
 02 10 2023  22 50  03.9707 19196.0 -14985.5 -37.9775 24352.7
 02 10 2023  22 51  03.9705 19196.2 -14985.4 -37.9771 24352.8
 02 10 2023  22 52  03.9704 19196.0 -14985.4 -37.9773 24352.6
 02 10 2023  22 53  03.9701 19196.0 -14985.4 -37.9773 24352.5
 02 10 2023  22 54  03.9704 19196.2 -14985.3 -37.9770 24352.7
 02 10 2023  22 55  03.9708 19196.3 -14985.3 -37.9768 24352.7
 02 10 2023  22 56  03.9710 19196.2 -14985.3 -37.9768 24352.7
 02 10 2023  22 57  03.9712 19196.4 -14985.2 -37.9765 24352.8
 02 10 2023  22 58  03.9713 19196.7 -14985.1 -37.9759 24353.0
 02 10 2023  22 59  03.9717 19197.0 -14985.1 -37.9753 24353.2
 02 10 2023  23 00  03.9721 19197.3 -14984.9 -37.9745 24353.3
 02 10 2023  23 01  03.9743 19198.3 -14984.5 -37.9724 24353.9
 02 10 2023  23 02  03.9745 19198.6 -14984.5 -37.9718 24354.1
 02 10 2023  23 03  03.9751 19198.6 -14984.4 -37.9718 24354.0
 02 10 2023  23 04  03.9749 19198.6 -14984.4 -37.9718 24354.0
 02 10 2023  23 05  03.9751 19198.5 -14984.5 -37.9721 24354.0
 02 10 2023  23 06  03.9754 19198.5 -14984.5 -37.9722 24354.0
 02 10 2023  23 07  03.9757 19198.5 -14984.5 -37.9721 24354.0
 02 10 2023  23 08  03.9761 19198.6 -14984.5 -37.9719 24354.0
 02 10 2023  23 09  03.9765 19198.7 -14984.4 -37.9716 24354.2
 02 10 2023  23 10  03.9765 19198.8 -14984.4 -37.9714 24354.1
 02 10 2023  23 11  03.9766 19199.2 -14984.3 -37.9707 24354.4
 02 10 2023  23 12  03.9768 19199.6 -14984.2 -37.9699 24354.7
 02 10 2023  23 13  03.9769 19199.9 -14984.2 -37.9694 24354.9
 02 10 2023  23 14  03.9771 19200.4 -14984.1 -37.9687 24355.2
 02 10 2023  23 15  03.9771 19200.6 -14984.1 -37.9682 24355.4
 02 10 2023  23 16  03.9770 19200.7 -14984.1 -37.9682 24355.5
 02 10 2023  23 17  03.9769 19200.7 -14984.1 -37.9682 24355.5
 02 10 2023  23 18  03.9768 19200.7 -14984.2 -37.9682 24355.6
 02 10 2023  23 19  03.9769 19200.7 -14984.2 -37.9683 24355.6
 02 10 2023  23 20  03.9771 19200.5 -14984.3 -37.9688 24355.4
 02 10 2023  23 21  03.9771 19200.3 -14984.3 -37.9691 24355.3
 02 10 2023  23 22  03.9772 19200.2 -14984.3 -37.9693 24355.2
 02 10 2023  23 23  03.9772 19200.2 -14984.3 -37.9694 24355.2
 02 10 2023  23 24  03.9773 19200.1 -14984.3 -37.9694 24355.2
 02 10 2023  23 25  03.9786 19200.1 -14984.2 -37.9691 24355.1
 02 10 2023  23 26  03.9787 19200.3 -14984.2 -37.9689 24355.2
 02 10 2023  23 27  03.9784 19200.6 -14984.2 -37.9684 24355.5
 02 10 2023  23 28  03.9782 19200.7 -14984.2 -37.9683 24355.5
 02 10 2023  23 29  03.9780 19200.7 -14984.2 -37.9684 24355.5
 02 10 2023  23 30  03.9781 19200.7 -14984.3 -37.9684 24355.6
 02 10 2023  23 31  03.9779 19200.6 -14984.3 -37.9686 24355.6
 02 10 2023  23 32  03.9777 19200.6 -14984.3 -37.9688 24355.5
 02 10 2023  23 33  03.9776 19200.5 -14984.4 -37.9689 24355.5
 02 10 2023  23 34  03.9774 19200.3 -14984.4 -37.9694 24355.4
 02 10 2023  23 35  03.9772 19200.1 -14984.5 -37.9699 24355.2
 02 10 2023  23 36  03.9773 19199.8 -14984.6 -37.9704 24355.1
 02 10 2023  23 37  03.9772 19199.6 -14984.6 -37.9708 24354.9
 02 10 2023  23 38  03.9773 19199.5 -14984.8 -37.9711 24354.9
 02 10 2023  23 39  03.9773 19199.6 -14984.8 -37.9712 24355.1
 02 10 2023  23 40  03.9773 19199.9 -14984.8 -37.9707 24355.3
 02 10 2023  23 41  03.9772 19199.9 -14984.9 -37.9708 24355.3
 02 10 2023  23 42  03.9772 19200.0 -14984.9 -37.9707 24355.4
 02 10 2023  23 43  03.9772 19200.0 -14984.9 -37.9707 24355.5
 02 10 2023  23 44  03.9772 19200.2 -14985.0 -37.9704 24355.7
 02 10 2023  23 45  03.9773 19200.4 -14985.0 -37.9702 24355.8
 02 10 2023  23 46  03.9773 19200.6 -14985.0 -37.9700 24356.0
 02 10 2023  23 47  03.9775 19200.9 -14985.1 -37.9697 24356.2
 02 10 2023  23 48  03.9777 19201.2 -14985.1 -37.9693 24356.4
 02 10 2023  23 49  03.9780 19201.3 -14985.1 -37.9691 24356.6
 02 10 2023  23 50  03.9780 19201.6 -14985.1 -37.9688 24356.8
 02 10 2023  23 51  03.9785 19201.9 -14985.1 -37.9683 24357.1
 02 10 2023  23 52  03.9787 19202.3 -14985.1 -37.9677 24357.3
 02 10 2023  23 53  03.9787 19202.7 -14985.1 -37.9670 24357.7
 02 10 2023  23 54  03.9785 19203.1 -14985.1 -37.9664 24358.0
 02 10 2023  23 55  03.9783 19203.3 -14985.1 -37.9661 24358.1
 02 10 2023  23 56  03.9778 19203.5 -14985.1 -37.9659 24358.3
 02 10 2023  23 57  03.9772 19203.4 -14985.1 -37.9661 24358.2
 02 10 2023  23 58  03.9762 19202.3 -14985.1 -37.9676 24357.4
 02 10 2023  23 59  03.9764 19202.6 -14985.2 -37.9675 24357.7
