CHILLAN EMBRACE-14 <275> 1 Min. Reported data

 DD MM YYYY  HH MM   H(mV)   D(mV)   Z(mV)  T1(mV)  T2(mV)

 02 10 2023  00 00  -744.602 -750.340 081.478 180.221 237.975
 02 10 2023  00 01  -744.990 -750.744 081.292 180.246 237.915
 02 10 2023  00 02  -745.335 -750.829 081.073 180.254 237.888
 02 10 2023  00 03  -745.851 -751.089 080.922 180.250 237.817
 02 10 2023  00 04  -746.442 -751.215 080.713 180.260 237.770
 02 10 2023  00 05  -746.991 -751.472 080.543 180.229 237.702
 02 10 2023  00 06  -747.608 -751.715 080.397 180.246 237.637
 02 10 2023  00 07  -748.425 -751.966 080.180 180.250 237.594
 02 10 2023  00 08  -748.970 -752.058 079.972 180.242 237.521
 02 10 2023  00 09  -749.719 -752.152 079.827 180.246 237.509
 02 10 2023  00 10  -750.428 -752.323 079.580 180.229 237.430
 02 10 2023  00 11  -751.167 -752.457 079.385 180.239 237.322
 02 10 2023  00 12  -751.700 -752.450 079.233 180.238 237.281
 02 10 2023  00 13  -752.016 -752.427 079.087 180.238 237.205
 02 10 2023  00 14  -752.235 -752.477 078.853 180.231 237.141
 02 10 2023  00 15  -752.746 -752.604 078.782 180.230 237.074
 02 10 2023  00 16  -753.154 -752.554 078.681 180.242 237.018
 02 10 2023  00 17  -753.520 -752.573 078.599 180.237 236.960
 02 10 2023  00 18  -754.447 -752.698 078.386 180.235 236.895
 02 10 2023  00 19  -754.776 -752.675 078.220 180.218 236.817
 02 10 2023  00 20  -755.038 -752.667 078.032 180.194 236.763
 02 10 2023  00 21  -755.296 -752.710 077.994 180.219 236.738
 02 10 2023  00 22  -755.867 -752.718 077.875 180.216 236.662
 02 10 2023  00 23  -756.079 -752.776 077.732 180.208 236.620
 02 10 2023  00 24  -756.602 -752.795 077.569 180.216 236.514
 02 10 2023  00 25  -757.024 -752.742 077.366 180.124 236.465
 02 10 2023  00 26  -757.191 -752.545 077.268 180.209 236.413
 02 10 2023  00 27  -757.266 -752.472 077.207 180.220 236.353
 02 10 2023  00 28  -757.058 -752.281 077.074 180.211 236.294
 02 10 2023  00 29  -757.640 -752.162 077.019 180.206 236.237
 02 10 2023  00 30  -758.070 -752.286 076.904 180.186 236.196
 02 10 2023  00 31  -758.593 -752.363 076.788 180.199 236.134
 02 10 2023  00 32  -758.975 -752.307 076.727 180.198 236.050
 02 10 2023  00 33  -759.166 -752.576 076.599 180.200 235.977
 02 10 2023  00 34  -759.185 -752.775 076.529 180.201 235.939
 02 10 2023  00 35  -759.731 -752.915 076.315 180.192 235.834
 02 10 2023  00 36  -759.493 -752.829 076.259 180.187 235.784
 02 10 2023  00 37  -759.711 -752.916 076.129 180.189 235.683
 02 10 2023  00 38  -759.782 -752.878 076.033 180.194 235.600
 02 10 2023  00 39  -760.000 -752.691 075.934 180.196 235.560
 02 10 2023  00 40  -760.128 -752.696 075.885 180.149 235.465
 02 10 2023  00 41  -760.220 -752.878 075.826 180.179 235.441
 02 10 2023  00 42  -760.716 -752.933 075.678 180.188 235.363
 02 10 2023  00 43  -761.398 -753.049 075.508 180.173 235.325
 02 10 2023  00 44  -761.337 -753.048 075.337 180.181 235.253
 02 10 2023  00 45  -761.849 -753.152 075.261 180.139 235.156
 02 10 2023  00 46  -762.047 -753.194 075.187 180.168 235.094
 02 10 2023  00 47  -762.435 -753.510 075.021 180.174 235.040
 02 10 2023  00 48  -762.646 -753.863 074.954 180.165 234.955
 02 10 2023  00 49  -763.230 -753.982 074.792 180.175 234.925
 02 10 2023  00 50  -764.145 -754.757 074.631 180.124 234.847
 02 10 2023  00 51  -764.986 -754.871 074.440 180.154 234.779
 02 10 2023  00 52  -765.186 -755.597 074.113 180.162 234.696
 02 10 2023  00 53  -765.824 -756.427 073.830 180.149 234.618
 02 10 2023  00 54  -766.451 -757.336 073.585 180.155 234.506
 02 10 2023  00 55  -767.719 -757.775 073.408 180.155 234.487
 02 10 2023  00 56  -768.694 -758.938 073.049 180.147 234.415
 02 10 2023  00 57  -772.184 -759.478 072.701 180.147 234.385
 02 10 2023  00 58  -772.582 -759.638 072.165 180.152 234.314
 02 10 2023  00 59  -771.876 -759.882 071.924 180.144 234.262
 02 10 2023  01 00  -773.094 -760.625 071.775 180.125 234.191
 02 10 2023  01 01  -774.353 -761.140 071.511 180.134 234.133
 02 10 2023  01 02  -774.719 -760.880 071.232 180.138 234.041
 02 10 2023  01 03  -776.133 -761.198 071.024 180.143 233.990
 02 10 2023  01 04  -777.314 -761.675 070.765 180.129 233.941
 02 10 2023  01 05  -778.412 -762.251 070.597 180.102 233.862
 02 10 2023  01 06  -779.007 -762.450 070.395 180.120 233.795
 02 10 2023  01 07  -778.952 -762.831 070.198 180.123 233.757
 02 10 2023  01 08  -779.701 -763.574 070.061 180.121 233.696
 02 10 2023  01 09  -780.500 -764.018 069.810 180.115 233.675
 02 10 2023  01 10  -780.874 -764.237 069.503 180.109 233.572
 02 10 2023  01 11  -781.246 -764.645 069.259 180.105 233.480
 02 10 2023  01 12  -781.432 -764.571 069.005 180.120 233.411
 02 10 2023  01 13  -782.070 -764.911 068.826 180.107 233.360
 02 10 2023  01 14  -782.390 -765.049 068.633 180.106 233.301
 02 10 2023  01 15  -783.166 -765.592 068.478 180.108 233.241
 02 10 2023  01 16  -783.653 -766.539 068.242 180.100 233.178
 02 10 2023  01 17  -783.563 -766.633 067.981 180.109 233.115
 02 10 2023  01 18  -783.946 -767.196 067.730 180.088 233.063
 02 10 2023  01 19  -783.782 -767.369 067.601 180.097 232.972
 02 10 2023  01 20  -783.863 -767.534 067.419 180.091 232.933
 02 10 2023  01 21  -784.145 -767.294 067.289 180.092 232.860
 02 10 2023  01 22  -784.807 -767.484 067.125 180.092 232.837
 02 10 2023  01 23  -784.844 -767.315 066.995 180.092 232.758
 02 10 2023  01 24  -784.837 -767.346 066.968 180.074 232.692
 02 10 2023  01 25  -784.788 -767.240 066.847 180.082 232.627
 02 10 2023  01 26  -784.799 -767.024 066.837 180.072 232.550
 02 10 2023  01 27  -785.339 -766.892 066.710 180.072 232.484
 02 10 2023  01 28  -785.496 -766.727 066.682 180.073 232.447
 02 10 2023  01 29  -785.785 -766.565 066.682 180.069 232.341
 02 10 2023  01 30  -786.891 -766.486 066.656 180.049 232.292
 02 10 2023  01 31  -788.390 -766.368 066.620 180.064 232.225
 02 10 2023  01 32  -789.520 -766.282 066.586 180.064 232.154
 02 10 2023  01 33  -790.201 -765.827 066.620 180.067 232.060
 02 10 2023  01 34  -791.262 -765.506 066.625 180.076 232.060
 02 10 2023  01 35  -792.087 -765.556 066.619 180.025 232.015
 02 10 2023  01 36  -793.200 -765.711 066.627 180.048 231.915
 02 10 2023  01 37  -794.541 -765.747 066.615 180.053 231.892
 02 10 2023  01 38  -795.501 -765.474 066.552 180.055 231.779
 02 10 2023  01 39  -796.774 -766.068 066.612 180.055 231.726
 02 10 2023  01 40  -798.411 -767.248 066.418 180.025 231.661
 02 10 2023  01 41  -798.351 -766.886 066.271 180.042 231.603
 02 10 2023  01 42  -799.834 -767.104 066.269 180.036 231.526
 02 10 2023  01 43  -799.801 -766.491 066.180 180.036 231.455
 02 10 2023  01 44  -800.885 -766.724 066.243 180.035 231.399
 02 10 2023  01 45  -801.884 -767.198 066.091 179.967 231.342
 02 10 2023  01 46  -802.325 -767.453 065.983 180.033 231.279
 02 10 2023  01 47  -803.423 -768.107 065.899 180.022 231.218
 02 10 2023  01 48  -803.714 -768.404 065.722 180.026 231.177
 02 10 2023  01 49  -804.024 -768.613 065.663 180.019 231.124
 02 10 2023  01 50  -804.558 -768.789 065.502 179.987 231.023
 02 10 2023  01 51  -805.290 -768.586 065.410 180.020 230.969
 02 10 2023  01 52  -806.149 -768.390 065.366 180.006 230.918
 02 10 2023  01 53  -806.964 -768.142 065.359 180.011 230.875
 02 10 2023  01 54  -807.637 -768.129 065.342 180.008 230.839
 02 10 2023  01 55  -808.451 -768.261 065.281 179.972 230.749
 02 10 2023  01 56  -808.902 -768.304 065.210 180.010 230.699
 02 10 2023  01 57  -809.205 -768.165 065.182 180.004 230.615
 02 10 2023  01 58  -809.545 -768.140 065.168 180.001 230.593
 02 10 2023  01 59  -809.286 -767.949 065.144 179.997 230.492
 02 10 2023  02 00  -809.289 -768.205 065.155 179.945 230.434
 02 10 2023  02 01  -809.181 -768.460 065.132 179.983 230.391
 02 10 2023  02 02  -809.285 -768.669 065.099 179.995 230.339
 02 10 2023  02 03  -809.502 -768.897 065.044 179.983 230.285
 02 10 2023  02 04  -809.718 -769.189 064.937 179.989 230.224
 02 10 2023  02 05  -810.193 -769.315 064.864 179.956 230.114
 02 10 2023  02 06  -809.766 -769.259 064.755 179.975 230.111
 02 10 2023  02 07  -809.481 -769.264 064.688 179.977 230.064
 02 10 2023  02 08  -809.009 -768.933 064.654 179.971 229.972
 02 10 2023  02 09  -808.625 -768.412 064.743 179.966 229.957
 02 10 2023  02 10  -808.337 -768.114 064.794 179.942 229.897
 02 10 2023  02 11  -808.101 -767.553 064.900 179.960 229.800
 02 10 2023  02 12  -807.696 -767.234 065.008 179.960 229.768
 02 10 2023  02 13  -807.144 -767.185 065.121 179.968 229.706
 02 10 2023  02 14  -807.012 -767.444 065.154 179.964 229.641
 02 10 2023  02 15  -806.560 -767.744 065.153 179.937 229.600
 02 10 2023  02 16  -806.418 -767.813 065.135 179.954 229.514
 02 10 2023  02 17  -805.728 -767.619 065.141 179.953 229.460
 02 10 2023  02 18  -805.587 -767.422 065.190 179.945 229.410
 02 10 2023  02 19  -805.380 -767.272 065.222 179.952 229.329
 02 10 2023  02 20  -805.094 -767.160 065.242 179.915 229.289
 02 10 2023  02 21  -804.852 -766.764 065.335 179.939 229.225
 02 10 2023  02 22  -804.613 -766.933 065.379 179.932 229.180
 02 10 2023  02 23  -804.813 -767.059 065.444 179.935 229.108
 02 10 2023  02 24  -805.208 -767.193 065.411 179.930 229.057
 02 10 2023  02 25  -804.886 -766.936 065.316 179.893 228.996
 02 10 2023  02 26  -804.507 -766.852 065.327 179.921 228.966
 02 10 2023  02 27  -804.486 -767.033 065.332 179.925 228.884
 02 10 2023  02 28  -803.849 -766.797 065.387 179.924 228.787
 02 10 2023  02 29  -803.933 -767.060 065.419 179.914 228.760
 02 10 2023  02 30  -804.064 -767.178 065.347 179.877 228.707
 02 10 2023  02 31  -804.312 -767.211 065.412 179.908 228.635
 02 10 2023  02 32  -803.516 -767.030 065.451 179.907 228.606
 02 10 2023  02 33  -801.289 -765.447 065.742 179.903 228.537
 02 10 2023  02 34  -802.180 -766.356 065.988 179.904 228.496
 02 10 2023  02 35  -802.070 -765.657 066.194 179.847 228.436
 02 10 2023  02 36  -802.222 -765.996 066.258 179.897 228.379
 02 10 2023  02 37  -802.645 -766.083 066.450 179.889 228.292
 02 10 2023  02 38  -802.898 -766.296 066.537 179.889 228.229
 02 10 2023  02 39  -802.890 -766.336 066.641 179.890 228.208
 02 10 2023  02 40  -803.111 -766.732 066.605 179.836 228.111
 02 10 2023  02 41  -803.035 -767.082 066.664 179.885 228.060
 02 10 2023  02 42  -802.984 -767.156 066.756 179.888 227.982
 02 10 2023  02 43  -802.802 -767.065 066.814 179.878 227.964
 02 10 2023  02 44  -802.523 -767.011 066.934 179.881 227.875
 02 10 2023  02 45  -801.369 -766.407 067.140 179.863 227.796
 02 10 2023  02 46  -800.344 -766.306 067.382 179.858 227.777
 02 10 2023  02 47  -800.478 -766.198 067.669 179.874 227.689
 02 10 2023  02 48  -798.590 -766.135 067.843 179.868 227.663
 02 10 2023  02 49  -797.033 -765.835 068.286 179.866 227.615
 02 10 2023  02 50  -792.996 -764.644 068.570 179.852 227.533
 02 10 2023  02 51  -791.040 -764.015 069.341 179.858 227.462
 02 10 2023  02 52  -788.613 -763.620 069.819 179.866 227.434
 02 10 2023  02 53  -787.096 -765.149 070.230 179.851 227.349
 02 10 2023  02 54  -784.691 -765.420 070.513 179.851 227.280
 02 10 2023  02 55  -782.563 -766.965 070.772 179.839 227.229
 02 10 2023  02 56  -780.275 -767.938 070.851 179.838 227.193
 02 10 2023  02 57  -778.776 -769.206 070.968 179.845 227.129
 02 10 2023  02 58  -777.278 -770.440 071.078 179.833 227.089
 02 10 2023  02 59  -774.846 -771.750 071.067 179.844 227.037
 02 10 2023  03 00  -772.704 -773.240 070.980 179.812 226.926
 02 10 2023  03 01  -768.177 -773.419 071.017 179.826 226.829
 02 10 2023  03 02  -764.274 -774.380 071.175 179.829 226.790
 02 10 2023  03 03  -760.468 -773.890 071.413 179.817 226.740
 02 10 2023  03 04  -757.387 -774.019 071.792 179.828 226.726
 02 10 2023  03 05  -754.734 -774.118 072.085 179.810 226.667
 02 10 2023  03 06  -751.741 -773.869 072.397 179.812 226.598
 02 10 2023  03 07  -749.749 -773.750 072.698 179.815 226.514
 02 10 2023  03 08  -748.074 -773.285 072.991 179.808 226.472
 02 10 2023  03 09  -746.622 -772.336 073.406 179.805 226.414
 02 10 2023  03 10  -745.403 -771.456 073.728 179.747 226.351
 02 10 2023  03 11  -744.260 -770.349 074.301 179.796 226.291
 02 10 2023  03 12  -742.612 -769.554 074.900 179.798 226.232
 02 10 2023  03 13  -740.863 -769.457 075.493 179.793 226.156
 02 10 2023  03 14  -739.380 -769.100 076.050 179.799 226.111
 02 10 2023  03 15  -738.322 -769.220 076.599 179.790 226.042
 02 10 2023  03 16  -736.474 -768.966 077.108 179.782 225.962
 02 10 2023  03 17  -736.869 -769.285 077.636 179.782 225.907
 02 10 2023  03 18  -736.323 -769.512 077.897 179.777 225.877
 02 10 2023  03 19  -736.451 -769.731 078.178 179.777 225.811
 02 10 2023  03 20  -736.992 -769.922 078.348 179.781 225.750
 02 10 2023  03 21  -737.653 -770.324 078.626 179.765 225.688
 02 10 2023  03 22  -738.211 -770.913 078.692 179.770 225.606
 02 10 2023  03 23  -738.556 -771.014 078.746 179.781 225.545
 02 10 2023  03 24  -739.843 -771.250 078.855 179.775 225.470
 02 10 2023  03 25  -741.014 -771.263 078.913 179.727 225.449
 02 10 2023  03 26  -740.114 -770.951 079.097 179.748 225.367
 02 10 2023  03 27  -742.191 -771.240 079.258 179.757 225.332
 02 10 2023  03 28  -742.192 -771.481 079.205 179.760 225.243
 02 10 2023  03 29  -742.090 -772.130 079.201 179.754 225.251
 02 10 2023  03 30  -742.907 -772.904 079.098 179.744 225.190
 02 10 2023  03 31  -743.740 -773.233 079.054 179.746 225.142
 02 10 2023  03 32  -744.503 -773.315 078.903 179.743 225.064
 02 10 2023  03 33  -745.200 -773.224 078.811 179.741 225.092
 02 10 2023  03 34  -745.715 -773.297 078.784 179.734 225.045
 02 10 2023  03 35  -746.313 -773.134 078.730 179.696 224.984
 02 10 2023  03 36  -747.047 -773.319 078.720 179.737 224.900
 02 10 2023  03 37  -747.759 -773.496 078.687 179.734 224.885
 02 10 2023  03 38  -748.529 -773.721 078.605 179.728 224.802
 02 10 2023  03 39  -749.326 -774.163 078.546 179.725 224.757
 02 10 2023  03 40  -749.903 -774.370 078.372 179.704 224.686
 02 10 2023  03 41  -749.966 -774.537 078.299 179.711 224.669
 02 10 2023  03 42  -750.668 -774.911 078.251 179.712 224.597
 02 10 2023  03 43  -751.611 -775.449 078.073 179.722 224.556
 02 10 2023  03 44  -752.454 -776.021 077.829 179.707 224.517
 02 10 2023  03 45  -753.473 -776.472 077.583 179.705 224.466
 02 10 2023  03 46  -754.597 -776.730 077.353 179.690 224.421
 02 10 2023  03 47  -755.728 -776.819 077.137 179.703 224.341
 02 10 2023  03 48  -756.814 -776.901 076.945 179.693 224.302
 02 10 2023  03 49  -757.753 -776.875 076.730 179.696 224.284
 02 10 2023  03 50  -758.512 -777.101 076.562 179.693 224.225
 02 10 2023  03 51  -759.078 -777.237 076.440 179.691 224.214
 02 10 2023  03 52  -759.323 -777.403 076.329 179.681 224.163
 02 10 2023  03 53  -759.437 -777.669 076.169 179.682 224.127
 02 10 2023  03 54  -759.501 -777.640 076.087 179.679 224.094
 02 10 2023  03 55  -758.941 -777.599 076.026 179.653 223.996
 02 10 2023  03 56  -757.189 -777.694 075.970 179.659 223.930
 02 10 2023  03 57  -755.565 -777.844 075.929 179.679 223.862
 02 10 2023  03 58  -754.178 -778.137 075.907 179.667 223.866
 02 10 2023  03 59  -753.384 -778.488 075.884 179.657 223.820
 02 10 2023  04 00  -752.725 -778.808 075.807 179.658 223.773
 02 10 2023  04 01  -752.115 -778.759 075.762 179.668 223.706
 02 10 2023  04 02  -752.297 -778.558 075.740 179.657 223.633
 02 10 2023  04 03  -753.495 -778.298 075.734 179.652 223.635
 02 10 2023  04 04  -755.034 -777.924 075.653 179.656 223.533
 02 10 2023  04 05  -756.813 -777.544 075.619 179.645 223.493
 02 10 2023  04 06  -758.387 -777.271 075.613 179.645 223.459
 02 10 2023  04 07  -759.971 -777.255 075.518 179.635 223.407
 02 10 2023  04 08  -761.313 -777.212 075.442 179.638 223.375
 02 10 2023  04 09  -761.857 -777.196 075.334 179.637 223.317
 02 10 2023  04 10  -762.545 -777.239 075.277 179.620 223.275
 02 10 2023  04 11  -763.048 -777.256 075.160 179.622 223.250
 02 10 2023  04 12  -763.200 -777.206 075.065 179.631 223.248
 02 10 2023  04 13  -763.308 -777.326 075.010 179.625 223.183
 02 10 2023  04 14  -763.312 -777.508 074.846 179.629 223.122
 02 10 2023  04 15  -763.926 -777.675 074.771 179.600 223.086
 02 10 2023  04 16  -764.441 -777.745 074.660 179.612 223.017
 02 10 2023  04 17  -765.118 -777.923 074.588 179.621 222.975
 02 10 2023  04 18  -765.796 -778.205 074.493 179.611 222.920
 02 10 2023  04 19  -766.298 -778.536 074.381 179.616 222.893
 02 10 2023  04 20  -767.221 -778.853 074.177 179.583 222.887
 02 10 2023  04 21  -768.185 -779.019 074.108 179.597 222.830
 02 10 2023  04 22  -768.716 -779.061 074.016 179.600 222.747
 02 10 2023  04 23  -768.856 -779.014 073.856 179.593 222.709
 02 10 2023  04 24  -769.199 -779.157 073.767 179.599 222.666
 02 10 2023  04 25  -769.814 -779.509 073.613 179.588 222.636
 02 10 2023  04 26  -770.385 -779.594 073.525 179.585 222.627
 02 10 2023  04 27  -770.902 -779.619 073.470 179.580 222.589
 02 10 2023  04 28  -771.141 -779.732 073.362 179.586 222.517
 02 10 2023  04 29  -771.401 -779.857 073.237 179.575 222.502
 02 10 2023  04 30  -771.452 -780.034 073.139 179.558 222.446
 02 10 2023  04 31  -771.870 -780.300 073.044 179.571 222.390
 02 10 2023  04 32  -772.276 -780.511 072.955 179.564 222.344
 02 10 2023  04 33  -772.411 -780.666 072.837 179.562 222.326
 02 10 2023  04 34  -772.322 -780.646 072.714 179.570 222.301
 02 10 2023  04 35  -772.465 -780.776 072.541 179.538 222.252
 02 10 2023  04 36  -772.436 -780.766 072.457 179.556 222.189
 02 10 2023  04 37  -772.782 -780.734 072.379 179.552 222.188
 02 10 2023  04 38  -772.885 -780.775 072.321 179.560 222.138
 02 10 2023  04 39  -772.918 -780.818 072.215 179.550 222.119
 02 10 2023  04 40  -773.416 -781.095 072.124 179.506 222.096
 02 10 2023  04 41  -773.355 -781.130 072.001 179.547 222.014
 02 10 2023  04 42  -772.835 -781.043 071.895 179.544 221.990
 02 10 2023  04 43  -772.727 -781.015 071.860 179.547 221.962
 02 10 2023  04 44  -772.676 -781.049 071.824 179.537 221.897
 02 10 2023  04 45  -772.127 -780.770 071.717 179.531 221.856
 02 10 2023  04 46  -772.258 -780.607 071.733 179.532 221.809
 02 10 2023  04 47  -772.349 -780.504 071.650 179.529 221.764
 02 10 2023  04 48  -772.984 -780.707 071.615 179.535 221.705
 02 10 2023  04 49  -773.400 -780.799 071.493 179.529 221.665
 02 10 2023  04 50  -773.744 -780.753 071.399 179.482 221.651
 02 10 2023  04 51  -774.476 -780.517 071.285 179.525 221.608
 02 10 2023  04 52  -774.942 -780.203 071.182 179.513 221.515
 02 10 2023  04 53  -775.363 -779.839 071.195 179.516 221.521
 02 10 2023  04 54  -775.607 -779.760 071.173 179.505 221.479
 02 10 2023  04 55  -776.135 -779.944 071.142 179.490 221.473
 02 10 2023  04 56  -777.411 -780.364 071.048 179.510 221.406
 02 10 2023  04 57  -777.419 -780.366 070.887 179.502 221.323
 02 10 2023  04 58  -777.812 -780.593 070.788 179.508 221.338
 02 10 2023  04 59  -777.890 -780.578 070.738 179.495 221.284
 02 10 2023  05 00  -777.828 -780.692 070.617 179.461 221.251
 02 10 2023  05 01  -778.039 -780.803 070.533 179.497 221.222
 02 10 2023  05 02  -777.951 -780.654 070.420 179.499 221.204
 02 10 2023  05 03  -777.553 -780.683 070.360 179.495 221.166
 02 10 2023  05 04  -777.329 -780.883 070.343 179.489 221.126
 02 10 2023  05 05  -777.817 -781.135 070.286 179.461 221.048
 02 10 2023  05 06  -778.535 -781.573 070.199 179.475 221.032
 02 10 2023  05 07  -779.032 -781.804 070.018 179.480 220.977
 02 10 2023  05 08  -779.342 -782.038 069.858 179.468 220.950
 02 10 2023  05 09  -779.581 -782.243 069.731 179.477 220.931
 02 10 2023  05 10  -780.232 -782.044 069.623 179.444 220.920
 02 10 2023  05 11  -780.507 -781.877 069.581 179.462 220.874
 02 10 2023  05 12  -780.989 -781.890 069.506 179.468 220.829
 02 10 2023  05 13  -781.563 -782.065 069.419 179.457 220.806
 02 10 2023  05 14  -781.903 -782.255 069.362 179.451 220.778
 02 10 2023  05 15  -782.182 -782.544 069.238 179.416 220.735
 02 10 2023  05 16  -783.058 -782.882 069.133 179.451 220.649
 02 10 2023  05 17  -783.707 -783.289 068.957 179.448 220.625
 02 10 2023  05 18  -784.212 -783.833 068.803 179.448 220.596
 02 10 2023  05 19  -784.801 -784.226 068.630 179.449 220.566
 02 10 2023  05 20  -785.416 -784.555 068.384 179.434 220.512
 02 10 2023  05 21  -785.795 -784.934 068.225 179.430 220.437
 02 10 2023  05 22  -786.389 -785.446 068.054 179.439 220.448
 02 10 2023  05 23  -786.785 -785.823 067.852 179.430 220.397
 02 10 2023  05 24  -786.757 -786.166 067.674 179.436 220.387
 02 10 2023  05 25  -786.948 -786.573 067.510 179.416 220.386
 02 10 2023  05 26  -787.318 -787.017 067.372 179.420 220.289
 02 10 2023  05 27  -787.612 -787.177 067.215 179.428 220.273
 02 10 2023  05 28  -787.574 -787.117 067.020 179.427 220.270
 02 10 2023  05 29  -787.315 -787.113 066.933 179.411 220.183
 02 10 2023  05 30  -787.158 -787.331 066.802 179.413 220.174
 02 10 2023  05 31  -787.144 -787.605 066.692 179.407 220.123
 02 10 2023  05 32  -787.235 -787.595 066.596 179.411 220.061
 02 10 2023  05 33  -787.615 -787.571 066.480 179.400 220.037
 02 10 2023  05 34  -788.235 -787.385 066.428 179.400 219.958
 02 10 2023  05 35  -789.408 -787.139 066.391 179.310 219.942
 02 10 2023  05 36  -790.590 -786.873 066.352 179.399 219.896
 02 10 2023  05 37  -790.852 -786.734 066.317 179.399 219.887
 02 10 2023  05 38  -790.886 -786.682 066.271 179.389 219.847
 02 10 2023  05 39  -791.270 -787.125 066.216 179.393 219.798
 02 10 2023  05 40  -791.638 -787.531 066.168 179.294 219.782
 02 10 2023  05 41  -791.780 -787.661 066.142 179.382 219.750
 02 10 2023  05 42  -791.787 -787.980 066.080 179.369 219.702
 02 10 2023  05 43  -791.789 -788.228 066.009 179.379 219.661
 02 10 2023  05 44  -791.720 -788.331 065.918 179.374 219.593
 02 10 2023  05 45  -792.000 -788.487 065.876 179.369 219.590
 02 10 2023  05 46  -792.141 -788.824 065.841 179.360 219.577
 02 10 2023  05 47  -792.615 -789.305 065.803 179.368 219.503
 02 10 2023  05 48  -792.891 -789.518 065.710 179.355 219.492
 02 10 2023  05 49  -793.353 -789.793 065.658 179.363 219.419
 02 10 2023  05 50  -793.367 -790.054 065.559 179.339 219.345
 02 10 2023  05 51  -793.193 -790.149 065.557 179.340 219.361
 02 10 2023  05 52  -792.919 -790.341 065.513 179.340 219.311
 02 10 2023  05 53  -792.745 -790.439 065.522 179.338 219.248
 02 10 2023  05 54  -792.695 -790.616 065.509 179.349 219.237
 02 10 2023  05 55  -793.177 -790.661 065.483 179.320 219.193
 02 10 2023  05 56  -793.197 -790.647 065.487 179.338 219.109
 02 10 2023  05 57  -793.252 -790.647 065.491 179.346 219.102
 02 10 2023  05 58  -793.284 -790.677 065.529 179.338 219.095
 02 10 2023  05 59  -793.430 -790.880 065.552 179.335 219.063
 02 10 2023  06 00  -793.743 -791.130 065.540 179.331 218.989
 02 10 2023  06 01  -793.955 -791.232 065.540 179.322 218.966
 02 10 2023  06 02  -793.911 -791.240 065.524 179.323 218.926
 02 10 2023  06 03  -793.833 -791.206 065.544 179.327 218.873
 02 10 2023  06 04  -793.427 -790.922 065.560 179.311 218.831
 02 10 2023  06 05  -792.951 -790.708 065.564 179.288 218.820
 02 10 2023  06 06  -792.415 -790.146 065.654 179.306 218.776
 02 10 2023  06 07  -792.234 -789.818 065.807 179.312 218.708
 02 10 2023  06 08  -792.141 -789.782 065.940 179.305 218.708
 02 10 2023  06 09  -791.891 -789.865 066.062 179.307 218.651
 02 10 2023  06 10  -791.850 -789.825 066.108 179.268 218.622
 02 10 2023  06 11  -791.793 -790.160 066.198 179.302 218.582
 02 10 2023  06 12  -791.780 -790.464 066.280 179.292 218.534
 02 10 2023  06 13  -791.642 -790.466 066.321 179.296 218.512
 02 10 2023  06 14  -791.784 -790.599 066.389 179.292 218.529
 02 10 2023  06 15  -792.030 -790.736 066.417 179.215 218.438
 02 10 2023  06 16  -792.451 -790.549 066.449 179.282 218.424
 02 10 2023  06 17  -792.836 -790.590 066.513 179.282 218.338
 02 10 2023  06 18  -793.385 -790.749 066.577 179.282 218.316
 02 10 2023  06 19  -793.378 -790.622 066.594 179.277 218.269
 02 10 2023  06 20  -793.377 -790.495 066.677 179.269 218.263
 02 10 2023  06 21  -793.471 -790.317 066.788 179.272 218.235
 02 10 2023  06 22  -793.692 -790.053 066.869 179.275 218.201
 02 10 2023  06 23  -793.531 -789.760 067.009 179.272 218.112
 02 10 2023  06 24  -793.492 -789.777 067.104 179.266 218.085
 02 10 2023  06 25  -793.711 -790.013 067.174 179.244 218.064
 02 10 2023  06 26  -793.553 -790.247 067.185 179.250 217.987
 02 10 2023  06 27  -793.928 -790.375 067.205 179.258 217.959
 02 10 2023  06 28  -794.443 -790.623 067.214 179.257 217.902
 02 10 2023  06 29  -794.849 -790.753 067.130 179.248 217.853
 02 10 2023  06 30  -794.751 -790.910 067.067 179.184 217.841
 02 10 2023  06 31  -794.271 -790.615 067.080 179.235 217.795
 02 10 2023  06 32  -793.679 -790.458 067.082 179.244 217.732
 02 10 2023  06 33  -793.294 -790.206 067.152 179.243 217.679
 02 10 2023  06 34  -793.007 -789.880 067.256 179.235 217.665
 02 10 2023  06 35  -792.640 -789.702 067.237 179.209 217.627
 02 10 2023  06 36  -792.157 -789.287 067.278 179.236 217.585
 02 10 2023  06 37  -791.575 -788.767 067.419 179.225 217.574
 02 10 2023  06 38  -791.092 -788.104 067.546 179.236 217.524
 02 10 2023  06 39  -790.502 -787.513 067.687 179.224 217.483
 02 10 2023  06 40  -790.178 -787.056 067.842 179.179 217.423
 02 10 2023  06 41  -789.779 -786.598 068.054 179.215 217.394
 02 10 2023  06 42  -788.759 -786.075 068.216 179.215 217.333
 02 10 2023  06 43  -787.575 -785.911 068.341 179.202 217.334
 02 10 2023  06 44  -786.291 -785.770 068.524 179.203 217.300
 02 10 2023  06 45  -785.122 -785.688 068.628 179.200 217.222
 02 10 2023  06 46  -784.631 -785.565 068.756 179.193 217.187
 02 10 2023  06 47  -784.527 -785.610 068.801 179.204 217.197
 02 10 2023  06 48  -784.587 -785.546 068.811 179.198 217.142
 02 10 2023  06 49  -784.550 -785.568 068.848 179.192 217.074
 02 10 2023  06 50  -783.996 -785.487 068.861 179.099 217.046
 02 10 2023  06 51  -783.196 -785.605 068.931 179.192 216.983
 02 10 2023  06 52  -783.412 -785.963 069.009 179.189 216.958
 02 10 2023  06 53  -783.950 -786.218 068.980 179.183 216.942
 02 10 2023  06 54  -784.827 -786.392 068.947 179.172 216.906
 02 10 2023  06 55  -785.412 -786.533 068.929 179.171 216.826
 02 10 2023  06 56  -786.221 -786.946 068.931 179.174 216.766
 02 10 2023  06 57  -786.759 -787.303 068.919 179.166 216.755
 02 10 2023  06 58  -787.246 -787.768 068.851 179.170 216.708
 02 10 2023  06 59  -787.106 -788.277 068.768 179.171 216.684
 02 10 2023  07 00  -786.882 -788.570 068.724 179.156 216.623
 02 10 2023  07 01  -786.565 -788.773 068.729 179.153 216.567
 02 10 2023  07 02  -786.487 -789.051 068.747 179.153 216.513
 02 10 2023  07 03  -786.700 -789.142 068.797 179.147 216.435
 02 10 2023  07 04  -786.840 -789.341 068.872 179.147 216.404
 02 10 2023  07 05  -786.887 -789.234 068.825 179.119 216.355
 02 10 2023  07 06  -786.580 -789.159 068.853 179.144 216.310
 02 10 2023  07 07  -786.319 -789.344 068.878 179.138 216.294
 02 10 2023  07 08  -786.174 -789.735 068.890 179.131 216.280
 02 10 2023  07 09  -786.059 -789.925 068.856 179.134 216.210
 02 10 2023  07 10  -786.555 -790.241 068.815 179.130 216.158
 02 10 2023  07 11  -787.435 -790.604 068.910 179.119 216.112
 02 10 2023  07 12  -788.157 -790.914 068.919 179.120 216.111
 02 10 2023  07 13  -788.599 -791.220 068.953 179.117 216.034
 02 10 2023  07 14  -788.666 -791.569 068.995 179.122 215.978
 02 10 2023  07 15  -788.859 -792.207 069.000 179.111 215.902
 02 10 2023  07 16  -788.548 -792.469 069.023 179.109 215.847
 02 10 2023  07 17  -787.875 -792.735 069.045 179.109 215.827
 02 10 2023  07 18  -787.619 -792.946 069.185 179.114 215.742
 02 10 2023  07 19  -787.270 -793.194 069.269 179.106 215.709
 02 10 2023  07 20  -787.001 -793.230 069.359 179.071 215.673
 02 10 2023  07 21  -786.999 -793.386 069.500 179.087 215.628
 02 10 2023  07 22  -787.229 -793.400 069.605 179.090 215.577
 02 10 2023  07 23  -787.441 -793.236 069.719 179.098 215.515
 02 10 2023  07 24  -787.950 -793.205 069.890 179.086 215.476
 02 10 2023  07 25  -788.192 -793.216 070.000 179.047 215.424
 02 10 2023  07 26  -788.475 -793.260 070.143 179.094 215.363
 02 10 2023  07 27  -788.621 -793.374 070.263 179.088 215.322
 02 10 2023  07 28  -788.748 -793.384 070.393 179.077 215.254
 02 10 2023  07 29  -788.425 -793.349 070.539 179.071 215.197
 02 10 2023  07 30  -788.255 -793.422 070.643 179.035 215.185
 02 10 2023  07 31  -787.666 -793.496 070.808 179.062 215.149
 02 10 2023  07 32  -787.699 -793.623 070.930 179.070 215.102
 02 10 2023  07 33  -787.568 -793.705 071.041 179.059 215.004
 02 10 2023  07 34  -787.243 -793.817 071.146 179.067 214.979
 02 10 2023  07 35  -786.923 -793.974 071.235 179.044 214.898
 02 10 2023  07 36  -786.601 -793.964 071.378 179.049 214.865
 02 10 2023  07 37  -786.587 -793.715 071.504 179.050 214.781
 02 10 2023  07 38  -786.670 -793.449 071.719 179.052 214.754
 02 10 2023  07 39  -786.720 -793.322 071.878 179.050 214.691
 02 10 2023  07 40  -786.766 -793.237 072.050 178.943 214.632
 02 10 2023  07 41  -786.939 -792.941 072.276 179.040 214.589
 02 10 2023  07 42  -787.152 -792.660 072.457 179.037 214.534
 02 10 2023  07 43  -787.094 -792.443 072.659 179.030 214.467
 02 10 2023  07 44  -786.820 -792.172 072.870 179.033 214.401
 02 10 2023  07 45  -786.611 -791.615 073.079 178.984 214.329
 02 10 2023  07 46  -786.337 -791.220 073.317 179.026 214.307
 02 10 2023  07 47  -786.117 -791.021 073.600 179.016 214.208
 02 10 2023  07 48  -785.800 -790.949 073.865 179.014 214.190
 02 10 2023  07 49  -785.542 -790.937 074.041 179.011 214.150
 02 10 2023  07 50  -785.444 -791.019 074.175 178.972 214.040
 02 10 2023  07 51  -785.221 -790.804 074.343 179.009 214.006
 02 10 2023  07 52  -784.796 -790.443 074.448 178.997 213.984
 02 10 2023  07 53  -784.547 -789.993 074.698 178.995 213.857
 02 10 2023  07 54  -784.481 -789.566 074.861 178.990 213.840
 02 10 2023  07 55  -784.642 -789.073 075.103 178.965 213.778
 02 10 2023  07 56  -784.696 -788.658 075.291 178.987 213.731
 02 10 2023  07 57  -784.587 -788.509 075.447 178.991 213.650
 02 10 2023  07 58  -784.468 -788.668 075.644 178.974 213.537
 02 10 2023  07 59  -784.064 -788.763 075.801 178.979 213.472
 02 10 2023  08 00  -783.761 -788.726 075.935 178.978 213.438
 02 10 2023  08 01  -783.416 -788.742 076.137 178.971 213.432
 02 10 2023  08 02  -782.941 -788.476 076.269 178.966 213.325
 02 10 2023  08 03  -782.483 -788.311 076.359 178.964 213.233
 02 10 2023  08 04  -781.953 -788.123 076.462 178.959 213.173
 02 10 2023  08 05  -781.431 -788.168 076.644 178.962 213.132
 02 10 2023  08 06  -780.600 -788.233 076.800 178.954 213.075
 02 10 2023  08 07  -779.098 -788.014 076.926 178.954 212.995
 02 10 2023  08 08  -777.674 -787.742 077.000 178.949 212.933
 02 10 2023  08 09  -776.141 -787.373 077.339 178.946 212.867
 02 10 2023  08 10  -774.777 -786.947 077.571 178.939 212.790
 02 10 2023  08 11  -774.184 -786.335 077.813 178.935 212.704
 02 10 2023  08 12  -774.779 -785.800 078.057 178.933 212.657
 02 10 2023  08 13  -775.504 -785.548 078.364 178.931 212.603
 02 10 2023  08 14  -776.400 -785.511 078.667 178.922 212.478
 02 10 2023  08 15  -777.090 -785.362 078.789 178.914 212.406
 02 10 2023  08 16  -777.406 -785.248 078.908 178.918 212.350
 02 10 2023  08 17  -777.296 -784.939 078.858 178.922 212.311
 02 10 2023  08 18  -776.842 -784.606 079.021 178.918 212.204
 02 10 2023  08 19  -776.113 -784.072 079.234 178.921 212.120
 02 10 2023  08 20  -775.184 -783.338 079.390 178.899 212.061
 02 10 2023  08 21  -774.286 -782.788 079.572 178.897 211.973
 02 10 2023  08 22  -773.174 -782.152 079.839 178.906 211.883
 02 10 2023  08 23  -772.765 -781.830 080.107 178.893 211.806
 02 10 2023  08 24  -772.689 -781.662 080.280 178.889 211.759
 02 10 2023  08 25  -772.526 -781.300 080.440 178.892 211.685
 02 10 2023  08 26  -772.451 -781.043 080.612 178.888 211.616
 02 10 2023  08 27  -772.282 -781.006 080.728 178.887 211.509
 02 10 2023  08 28  -772.060 -780.893 080.767 178.873 211.453
 02 10 2023  08 29  -771.818 -780.654 080.805 178.867 211.385
 02 10 2023  08 30  -771.678 -780.445 080.896 178.871 211.311
 02 10 2023  08 31  -771.384 -780.341 080.969 178.857 211.207
 02 10 2023  08 32  -771.270 -780.192 081.033 178.856 211.148
 02 10 2023  08 33  -771.261 -780.268 081.066 178.859 211.035
 02 10 2023  08 34  -771.201 -780.310 081.043 178.855 210.962
 02 10 2023  08 35  -771.416 -780.313 081.061 178.849 210.889
 02 10 2023  08 36  -771.654 -780.450 081.062 178.842 210.772
 02 10 2023  08 37  -772.027 -780.722 081.065 178.838 210.701
 02 10 2023  08 38  -772.405 -780.993 080.989 178.832 210.605
 02 10 2023  08 39  -772.762 -781.069 080.884 178.826 210.530
 02 10 2023  08 40  -772.848 -781.172 080.843 178.823 210.449
 02 10 2023  08 41  -773.117 -781.292 080.641 178.824 210.321
 02 10 2023  08 42  -773.142 -781.495 080.646 178.819 210.282
 02 10 2023  08 43  -773.299 -781.564 080.503 178.814 210.165
 02 10 2023  08 44  -773.788 -781.469 080.202 178.812 210.069
 02 10 2023  08 45  -774.209 -781.602 079.962 178.799 209.961
 02 10 2023  08 46  -773.527 -782.007 080.391 178.805 209.931
 02 10 2023  08 47  -773.187 -781.980 080.419 178.795 209.839
 02 10 2023  08 48  -773.104 -782.088 080.289 178.784 209.732
 02 10 2023  08 49  -772.897 -782.230 080.325 178.789 209.668
 02 10 2023  08 50  -772.806 -782.305 080.338 178.787 209.533
 02 10 2023  08 51  -772.657 -782.403 080.258 178.778 209.413
 02 10 2023  08 52  -772.593 -782.648 080.174 178.787 209.307
 02 10 2023  08 53  -772.308 -782.958 080.247 178.773 209.214
 02 10 2023  08 54  -772.141 -783.114 080.185 178.775 209.108
 02 10 2023  08 55  -771.987 -783.386 080.112 178.767 209.014
 02 10 2023  08 56  -771.780 -783.436 080.104 178.771 208.921
 02 10 2023  08 57  -771.570 -783.249 080.177 178.768 208.860
 02 10 2023  08 58  -771.381 -783.211 080.232 178.752 208.751
 02 10 2023  08 59  -771.229 -783.225 080.217 178.749 208.646
 02 10 2023  09 00  -771.014 -783.090 080.237 178.746 208.562
 02 10 2023  09 01  -770.789 -782.898 080.417 178.737 208.452
 02 10 2023  09 02  -770.799 -782.919 080.535 178.737 208.345
 02 10 2023  09 03  -770.864 -782.852 080.576 178.738 208.253
 02 10 2023  09 04  -770.948 -782.622 080.583 178.733 208.159
 02 10 2023  09 05  -771.110 -782.448 080.643 178.730 208.070
 02 10 2023  09 06  -771.105 -782.276 080.778 178.710 207.973
 02 10 2023  09 07  -771.394 -781.947 080.896 178.712 207.855
 02 10 2023  09 08  -771.566 -781.434 080.963 178.711 207.753
 02 10 2023  09 09  -771.765 -781.236 081.012 178.702 207.681
 02 10 2023  09 10  -771.910 -781.228 081.095 178.631 207.612
 02 10 2023  09 11  -772.033 -781.274 081.140 178.684 207.500
 02 10 2023  09 12  -771.890 -781.337 081.148 178.697 207.396
 02 10 2023  09 13  -771.647 -781.354 081.260 178.691 207.301
 02 10 2023  09 14  -771.284 -781.265 081.514 178.681 207.193
 02 10 2023  09 15  -771.162 -781.201 081.424 178.650 207.105
 02 10 2023  09 16  -770.543 -781.262 081.488 178.665 207.008
 02 10 2023  09 17  -769.697 -781.361 081.737 178.676 206.904
 02 10 2023  09 18  -768.968 -781.145 081.846 178.667 206.819
 02 10 2023  09 19  -769.013 -780.816 081.982 178.671 206.732
 02 10 2023  09 20  -769.769 -780.177 081.884 178.611 206.653
 02 10 2023  09 21  -770.450 -779.911 081.963 178.646 206.508
 02 10 2023  09 22  -770.580 -779.696 081.974 178.641 206.404
 02 10 2023  09 23  -770.683 -779.596 082.064 178.641 206.310
 02 10 2023  09 24  -770.423 -779.174 082.130 178.642 206.217
 02 10 2023  09 25  -770.178 -778.881 082.255 178.627 206.137
 02 10 2023  09 26  -770.039 -778.616 082.413 178.623 206.017
 02 10 2023  09 27  -769.548 -778.245 082.574 178.629 205.921
 02 10 2023  09 28  -769.212 -777.829 082.718 178.616 205.863
 02 10 2023  09 29  -768.752 -777.682 082.713 178.611 205.724
 02 10 2023  09 30  -768.442 -777.797 082.869 178.592 205.618
 02 10 2023  09 31  -768.226 -777.982 082.913 178.601 205.495
 02 10 2023  09 32  -768.081 -777.875 082.960 178.604 205.405
 02 10 2023  09 33  -767.860 -777.678 082.986 178.601 205.310
 02 10 2023  09 34  -767.625 -777.556 082.996 178.598 205.174
 02 10 2023  09 35  -767.340 -777.299 083.084 178.557 205.053
 02 10 2023  09 36  -766.849 -776.898 083.349 178.586 204.946
 02 10 2023  09 37  -766.067 -776.732 083.866 178.584 204.831
 02 10 2023  09 38  -765.829 -776.373 083.910 178.567 204.745
 02 10 2023  09 39  -765.801 -775.965 083.977 178.569 204.621
 02 10 2023  09 40  -765.994 -775.978 084.002 178.549 204.513
 02 10 2023  09 41  -766.286 -775.856 083.866 178.556 204.396
 02 10 2023  09 42  -766.001 -775.180 083.951 178.556 204.276
 02 10 2023  09 43  -765.764 -774.651 084.218 178.549 204.162
 02 10 2023  09 44  -766.115 -774.178 084.351 178.549 204.082
 02 10 2023  09 45  -766.412 -774.269 084.315 178.525 203.959
 02 10 2023  09 46  -765.948 -773.979 084.648 178.528 203.882
 02 10 2023  09 47  -766.093 -773.515 084.544 178.525 203.729
 02 10 2023  09 48  -765.693 -773.198 084.744 178.524 203.604
 02 10 2023  09 49  -764.827 -772.569 084.959 178.519 203.490
 02 10 2023  09 50  -764.210 -771.886 085.092 178.449 203.380
 02 10 2023  09 51  -763.349 -771.371 085.248 178.507 203.283
 02 10 2023  09 52  -762.677 -771.218 085.389 178.497 203.167
 02 10 2023  09 53  -762.053 -771.059 085.654 178.497 203.069
 02 10 2023  09 54  -761.196 -770.733 085.957 178.503 202.906
 02 10 2023  09 55  -760.534 -770.104 086.117 178.467 202.814
 02 10 2023  09 56  -759.790 -769.649 086.334 178.473 202.742
 02 10 2023  09 57  -759.048 -769.356 086.514 178.485 202.606
 02 10 2023  09 58  -758.363 -768.768 086.641 178.473 202.446
 02 10 2023  09 59  -758.112 -768.395 086.877 178.481 202.325
 02 10 2023  10 00  -757.319 -767.742 087.134 178.439 202.195
 02 10 2023  10 01  -756.804 -767.421 087.529 178.468 202.069
 02 10 2023  10 02  -756.719 -767.248 087.796 178.452 201.963
 02 10 2023  10 03  -755.928 -766.819 087.889 178.449 201.838
 02 10 2023  10 04  -755.363 -766.536 088.185 178.444 201.738
 02 10 2023  10 05  -754.910 -766.149 088.469 178.432 201.563
 02 10 2023  10 06  -754.261 -765.675 088.711 178.428 201.480
 02 10 2023  10 07  -753.292 -765.437 088.997 178.440 201.335
 02 10 2023  10 08  -752.858 -765.653 089.107 178.426 201.234
 02 10 2023  10 09  -752.060 -765.308 089.059 178.426 201.102
 02 10 2023  10 10  -751.352 -764.944 089.053 178.399 200.999
 02 10 2023  10 11  -750.988 -764.848 089.247 178.412 200.876
 02 10 2023  10 12  -750.549 -764.229 089.222 178.415 200.762
 02 10 2023  10 13  -749.583 -763.666 089.318 178.407 200.644
 02 10 2023  10 14  -748.535 -763.283 089.557 178.396 200.536
 02 10 2023  10 15  -747.650 -763.228 089.649 178.387 200.379
 02 10 2023  10 16  -747.160 -763.494 089.714 178.387 200.276
 02 10 2023  10 17  -746.711 -763.273 089.729 178.384 200.111
 02 10 2023  10 18  -745.716 -763.010 089.698 178.384 200.014
 02 10 2023  10 19  -744.843 -762.643 089.816 178.373 199.884
 02 10 2023  10 20  -744.195 -762.415 089.837 178.311 199.765
 02 10 2023  10 21  -743.260 -762.327 089.902 178.361 199.639
 02 10 2023  10 22  -742.550 -762.379 089.903 178.357 199.509
 02 10 2023  10 23  -741.773 -762.463 089.883 178.345 199.394
 02 10 2023  10 24  -740.902 -762.590 089.798 178.344 199.266
 02 10 2023  10 25  -740.046 -762.337 089.811 178.316 199.142
 02 10 2023  10 26  -739.557 -762.056 089.784 178.327 199.035
 02 10 2023  10 27  -739.076 -762.157 089.660 178.326 198.907
 02 10 2023  10 28  -738.886 -762.162 089.510 178.312 198.775
 02 10 2023  10 29  -738.712 -761.658 089.434 178.314 198.662
 02 10 2023  10 30  -739.186 -763.266 089.258 178.306 198.502
 02 10 2023  10 31  -739.306 -763.353 088.897 178.297 198.389
 02 10 2023  10 32  -738.331 -762.564 088.682 178.295 198.271
 02 10 2023  10 33  -737.736 -762.587 088.520 178.278 198.162
 02 10 2023  10 34  -737.509 -763.047 088.291 178.294 198.008
 02 10 2023  10 35  -737.152 -763.053 088.108 178.274 197.868
 02 10 2023  10 36  -736.865 -763.243 087.921 178.260 197.748
 02 10 2023  10 37  -736.577 -763.186 087.709 178.256 197.599
 02 10 2023  10 38  -736.672 -764.088 087.516 178.259 197.517
 02 10 2023  10 39  -736.021 -763.194 087.232 178.253 197.414
 02 10 2023  10 40  -735.749 -763.257 087.228 178.229 197.255
 02 10 2023  10 41  -735.660 -763.889 087.101 178.237 197.143
 02 10 2023  10 42  -735.355 -764.350 086.887 178.236 197.032
 02 10 2023  10 43  -735.404 -765.013 086.717 178.226 196.882
 02 10 2023  10 44  -735.374 -764.858 086.522 178.229 196.733
 02 10 2023  10 45  -736.205 -764.986 086.496 178.160 196.575
 02 10 2023  10 46  -735.726 -763.722 086.089 178.206 196.474
 02 10 2023  10 47  -736.324 -763.268 086.224 178.204 196.315
 02 10 2023  10 48  -737.610 -763.502 086.337 178.203 196.201
 02 10 2023  10 49  -738.670 -762.257 086.217 178.191 196.066
 02 10 2023  10 50  -738.648 -762.616 086.065 178.171 195.949
 02 10 2023  10 51  -738.487 -762.748 085.856 178.176 195.798
 02 10 2023  10 52  -739.285 -763.413 085.926 178.180 195.658
 02 10 2023  10 53  -739.478 -762.643 085.576 178.164 195.511
 02 10 2023  10 54  -739.695 -763.137 085.366 178.160 195.433
 02 10 2023  10 55  -739.788 -762.509 085.000 178.095 195.333
 02 10 2023  10 56  -739.644 -762.906 084.757 178.148 195.197
 02 10 2023  10 57  -738.451 -761.517 084.597 178.145 195.049
 02 10 2023  10 58  -738.386 -761.145 084.527 178.137 194.917
 02 10 2023  10 59  -738.168 -760.834 084.475 178.121 194.803
 02 10 2023  11 00  -738.557 -761.441 084.174 178.104 194.671
 02 10 2023  11 01  -739.138 -761.601 084.154 178.115 194.582
 02 10 2023  11 02  -740.394 -761.140 083.627 178.116 194.458
 02 10 2023  11 03  -740.173 -761.317 083.227 178.109 194.321
 02 10 2023  11 04  -739.798 -762.408 083.264 178.106 194.216
 02 10 2023  11 05  -739.901 -763.028 083.080 178.085 194.085
 02 10 2023  11 06  -740.293 -763.322 082.639 178.086 193.982
 02 10 2023  11 07  -740.075 -764.071 082.413 178.086 193.850
 02 10 2023  11 08  -739.288 -764.273 082.183 178.073 193.697
 02 10 2023  11 09  -739.118 -764.735 081.960 178.070 193.607
 02 10 2023  11 10  -738.945 -764.869 081.666 178.045 193.519
 02 10 2023  11 11  -738.816 -764.973 081.509 178.046 193.391
 02 10 2023  11 12  -739.024 -765.908 081.225 178.056 193.242
 02 10 2023  11 13  -739.230 -767.849 080.891 178.037 193.171
 02 10 2023  11 14  -739.276 -768.409 080.520 178.042 193.046
 02 10 2023  11 15  -738.933 -769.823 079.998 177.998 192.914
 02 10 2023  11 16  -736.297 -772.536 084.555 178.009 192.828
 02 10 2023  11 17  -730.426 -770.441 083.062 178.012 192.683
 02 10 2023  11 18  -741.216 -773.057 077.836 178.008 192.544
 02 10 2023  11 19  -740.921 -773.036 077.641 177.994 192.414
 02 10 2023  11 20  -740.534 -772.471 077.436 177.980 192.326
 02 10 2023  11 21  -740.385 -771.825 077.430 177.988 192.209
 02 10 2023  11 22  -740.327 -771.551 077.270 177.993 192.078
 02 10 2023  11 23  -740.154 -771.851 077.233 177.983 192.000
 02 10 2023  11 24  -739.909 -771.597 077.237 177.967 191.869
 02 10 2023  11 25  -739.697 -771.549 077.277 177.913 191.775
 02 10 2023  11 26  -739.982 -772.416 077.030 177.950 191.720
 02 10 2023  11 27  -740.523 -773.241 076.637 177.953 191.635
 02 10 2023  11 28  -740.861 -774.311 076.384 177.954 191.511
 02 10 2023  11 29  -740.936 -774.852 076.126 177.943 191.396
 02 10 2023  11 30  -741.130 -774.514 075.898 177.935 191.294
 02 10 2023  11 31  -741.153 -774.417 075.763 177.939 191.207
 02 10 2023  11 32  -741.408 -774.336 075.627 177.916 191.126
 02 10 2023  11 33  -741.902 -774.160 075.370 177.911 191.031
 02 10 2023  11 34  -742.359 -774.871 075.151 177.914 190.904
 02 10 2023  11 35  -742.068 -776.009 075.082 177.905 190.819
 02 10 2023  11 36  -741.713 -776.972 074.774 177.897 190.737
 02 10 2023  11 37  -742.471 -777.116 074.299 177.884 190.612
 02 10 2023  11 38  -742.982 -777.454 073.744 177.889 190.518
 02 10 2023  11 39  -743.435 -778.424 073.260 177.879 190.467
 02 10 2023  11 40  -743.535 -779.906 072.786 177.845 190.381
 02 10 2023  11 41  -742.766 -779.176 072.151 177.864 190.282
 02 10 2023  11 42  -742.926 -780.859 071.485 177.864 190.229
 02 10 2023  11 43  -743.191 -781.087 071.032 177.859 190.142
 02 10 2023  11 44  -743.027 -781.369 070.745 177.834 190.086
 02 10 2023  11 45  -742.719 -781.801 070.577 177.840 190.052
 02 10 2023  11 46  -742.274 -782.250 070.374 177.831 189.999
 02 10 2023  11 47  -742.175 -784.027 070.250 177.823 189.937
 02 10 2023  11 48  -741.971 -786.209 069.940 177.828 189.867
 02 10 2023  11 49  -741.656 -787.575 069.471 177.823 189.832
 02 10 2023  11 50  -741.218 -788.292 069.027 177.791 189.794
 02 10 2023  11 51  -740.910 -788.811 068.746 177.798 189.753
 02 10 2023  11 52  -740.345 -788.794 068.479 177.807 189.706
 02 10 2023  11 53  -739.451 -788.838 068.363 177.799 189.653
 02 10 2023  11 54  -738.792 -789.374 068.323 177.788 189.669
 02 10 2023  11 55  -738.683 -789.816 068.260 177.786 189.605
 02 10 2023  11 56  -738.694 -789.686 068.185 177.778 189.518
 02 10 2023  11 57  -739.004 -790.504 067.989 177.769 189.500
 02 10 2023  11 58  -739.584 -791.337 067.816 177.765 189.495
 02 10 2023  11 59  -740.262 -791.852 067.621 177.763 189.502
 02 10 2023  12 00  -740.514 -792.402 067.648 177.710 189.508
 02 10 2023  12 01  -741.028 -793.136 067.105 177.740 189.488
 02 10 2023  12 02  -740.781 -793.241 066.773 177.737 189.478
 02 10 2023  12 03  -740.981 -792.700 066.449 177.732 189.493
 02 10 2023  12 04  -741.930 -793.089 065.981 177.728 189.463
 02 10 2023  12 05  -742.198 -793.967 065.690 177.661 189.464
 02 10 2023  12 06  -742.194 -795.023 065.551 177.719 189.498
 02 10 2023  12 07  -742.765 -796.760 065.228 177.701 189.502
 02 10 2023  12 08  -743.000 -798.357 064.772 177.709 189.524
 02 10 2023  12 09  -742.977 -799.846 064.531 177.693 189.556
 02 10 2023  12 10  -743.889 -800.322 064.096 177.671 189.571
 02 10 2023  12 11  -744.879 -800.134 063.780 177.684 189.567
 02 10 2023  12 12  -745.732 -800.347 063.529 177.680 189.573
 02 10 2023  12 13  -746.592 -800.843 063.300 177.675 189.598
 02 10 2023  12 14  -747.193 -802.251 062.927 177.663 189.668
 02 10 2023  12 15  -747.057 -803.294 062.562 177.659 189.737
 02 10 2023  12 16  -746.600 -804.330 062.385 177.655 189.738
 02 10 2023  12 17  -745.781 -805.810 062.449 177.661 189.811
 02 10 2023  12 18  -745.380 -807.360 062.281 177.652 189.839
 02 10 2023  12 19  -744.913 -807.764 061.968 177.649 189.942
 02 10 2023  12 20  -744.965 -807.810 061.907 177.625 189.977
 02 10 2023  12 21  -745.147 -808.209 061.821 177.623 190.009
 02 10 2023  12 22  -745.005 -809.591 061.717 177.633 190.075
 02 10 2023  12 23  -744.928 -810.814 061.610 177.633 190.126
 02 10 2023  12 24  -745.012 -811.788 061.478 177.618 190.208
 02 10 2023  12 25  -745.478 -813.173 061.312 177.607 190.271
 02 10 2023  12 26  -745.963 -814.334 061.020 177.607 190.286
 02 10 2023  12 27  -745.981 -815.618 060.810 177.607 190.369
 02 10 2023  12 28  -746.236 -816.511 060.542 177.595 190.483
 02 10 2023  12 29  -746.786 -817.539 060.291 177.604 190.568
 02 10 2023  12 30  -746.923 -818.763 060.045 177.595 190.646
 02 10 2023  12 31  -746.853 -820.129 059.863 177.591 190.737
 02 10 2023  12 32  -746.694 -821.204 059.743 177.584 190.809
 02 10 2023  12 33  -746.870 -822.006 059.747 177.584 190.863
 02 10 2023  12 34  -747.366 -822.412 059.540 177.576 190.946
 02 10 2023  12 35  -747.862 -823.441 059.405 177.528 191.017
 02 10 2023  12 36  -748.076 -824.425 059.389 177.558 191.153
 02 10 2023  12 37  -748.736 -825.490 058.938 177.557 191.274
 02 10 2023  12 38  -748.110 -826.557 059.189 177.553 191.375
 02 10 2023  12 39  -748.062 -827.397 059.150 177.552 191.467
 02 10 2023  12 40  -748.070 -828.123 059.138 177.509 191.579
 02 10 2023  12 41  -748.178 -828.867 059.153 177.525 191.667
 02 10 2023  12 42  -748.151 -829.564 059.082 177.533 191.767
 02 10 2023  12 43  -747.712 -830.713 058.921 177.533 191.917
 02 10 2023  12 44  -747.502 -831.673 058.848 177.527 192.050
 02 10 2023  12 45  -747.006 -832.186 058.634 177.510 192.146
 02 10 2023  12 46  -746.561 -833.156 058.572 177.513 192.325
 02 10 2023  12 47  -746.217 -834.353 058.511 177.515 192.457
 02 10 2023  12 48  -746.394 -835.560 058.427 177.515 192.568
 02 10 2023  12 49  -746.037 -836.838 058.552 177.506 192.718
 02 10 2023  12 50  -746.131 -838.322 058.703 177.433 192.878
 02 10 2023  12 51  -745.937 -839.337 058.720 177.490 192.994
 02 10 2023  12 52  -745.552 -840.275 058.941 177.492 193.137
 02 10 2023  12 53  -745.533 -840.994 059.231 177.488 193.286
 02 10 2023  12 54  -745.860 -841.736 059.469 177.484 193.445
 02 10 2023  12 55  -745.748 -842.651 059.706 177.463 193.604
 02 10 2023  12 56  -745.307 -843.333 060.089 177.471 193.739
 02 10 2023  12 57  -745.354 -844.620 060.468 177.471 193.889
 02 10 2023  12 58  -744.527 -845.505 060.969 177.478 194.047
 02 10 2023  12 59  -744.210 -846.589 061.504 177.464 194.242
 02 10 2023  13 00  -744.074 -847.406 061.854 177.466 194.376
 02 10 2023  13 01  -744.017 -847.548 062.300 177.450 194.531
 02 10 2023  13 02  -744.051 -847.881 062.760 177.464 194.674
 02 10 2023  13 03  -743.105 -848.832 063.282 177.448 194.801
 02 10 2023  13 04  -741.479 -850.002 063.952 177.446 194.958
 02 10 2023  13 05  -740.229 -850.856 064.668 177.448 195.126
 02 10 2023  13 06  -739.069 -851.446 065.505 177.441 195.304
 02 10 2023  13 07  -738.758 -852.291 066.171 177.433 195.492
 02 10 2023  13 08  -739.041 -852.967 066.683 177.438 195.656
 02 10 2023  13 09  -738.932 -854.351 067.186 177.433 195.765
 02 10 2023  13 10  -738.048 -855.362 067.688 177.415 195.938
 02 10 2023  13 11  -737.550 -856.503 068.336 177.435 196.108
 02 10 2023  13 12  -736.663 -858.032 068.895 177.435 196.291
 02 10 2023  13 13  -735.907 -859.340 069.471 177.430 196.502
 02 10 2023  13 14  -736.068 -860.764 070.018 177.427 196.640
 02 10 2023  13 15  -735.915 -862.049 070.500 177.415 196.811
 02 10 2023  13 16  -735.318 -862.994 071.134 177.415 196.935
 02 10 2023  13 17  -734.116 -864.010 071.775 177.412 197.160
 02 10 2023  13 18  -733.266 -864.928 072.552 177.408 197.362
 02 10 2023  13 19  -731.234 -865.509 073.390 177.410 197.548
 02 10 2023  13 20  -728.715 -866.859 074.510 177.357 197.716
 02 10 2023  13 21  -726.721 -867.411 075.757 177.390 197.907
 02 10 2023  13 22  -726.523 -867.758 076.950 177.395 198.096
 02 10 2023  13 23  -726.708 -867.561 077.973 177.403 198.265
 02 10 2023  13 24  -727.175 -867.710 078.897 177.391 198.468
 02 10 2023  13 25  -726.813 -867.670 079.740 177.395 198.694
 02 10 2023  13 26  -726.781 -867.423 080.721 177.400 198.905
 02 10 2023  13 27  -726.284 -867.535 081.570 177.381 199.072
 02 10 2023  13 28  -725.912 -868.948 082.544 177.398 199.285
 02 10 2023  13 29  -725.868 -870.611 083.396 177.387 199.515
 02 10 2023  13 30  -725.530 -871.926 084.088 177.368 199.688
 02 10 2023  13 31  -724.155 -873.329 084.891 177.371 199.846
 02 10 2023  13 32  -722.938 -874.844 085.791 177.378 200.035
 02 10 2023  13 33  -721.966 -876.388 086.707 177.378 200.288
 02 10 2023  13 34  -721.503 -877.173 087.605 177.373 200.483
 02 10 2023  13 35  -720.949 -877.690 088.486 177.345 200.703
 02 10 2023  13 36  -719.539 -878.478 089.507 177.362 200.967
 02 10 2023  13 37  -719.069 -878.890 090.450 177.372 201.120
 02 10 2023  13 38  -718.569 -879.162 091.495 177.370 201.334
 02 10 2023  13 39  -719.170 -879.370 092.572 177.352 201.593
 02 10 2023  13 40  -720.179 -879.434 093.573 177.358 201.846
 02 10 2023  13 41  -721.777 -879.484 094.451 177.342 202.047
 02 10 2023  13 42  -722.307 -880.141 095.151 177.359 202.272
 02 10 2023  13 43  -724.057 -879.901 095.950 177.355 202.519
 02 10 2023  13 44  -726.071 -879.295 096.650 177.356 202.738
 02 10 2023  13 45  -728.575 -878.320 097.363 177.328 202.977
 02 10 2023  13 46  -730.876 -877.753 098.070 177.356 203.212
 02 10 2023  13 47  -733.141 -877.720 098.624 177.352 203.435
 02 10 2023  13 48  -734.882 -877.532 099.138 177.353 203.650
 02 10 2023  13 49  -736.716 -876.975 099.847 177.341 203.891
 02 10 2023  13 50  -740.269 -876.988 100.379 177.334 204.184
 02 10 2023  13 51  -743.381 -877.784 100.904 177.338 204.448
 02 10 2023  13 52  -745.879 -878.044 101.018 177.346 204.653
 02 10 2023  13 53  -748.643 -878.614 101.305 177.331 204.901
 02 10 2023  13 54  -750.860 -878.660 101.613 177.345 205.140
 02 10 2023  13 55  -753.566 -878.615 101.917 177.320 205.406
 02 10 2023  13 56  -755.547 -878.424 102.301 177.322 205.667
 02 10 2023  13 57  -756.837 -878.476 102.718 177.331 205.949
 02 10 2023  13 58  -757.405 -877.834 103.211 177.330 206.179
 02 10 2023  13 59  -757.236 -877.751 103.862 177.326 206.407
 02 10 2023  14 00  -756.704 -878.097 104.632 177.325 206.688
 02 10 2023  14 01  -756.086 -878.425 105.484 177.327 206.973
 02 10 2023  14 02  -755.947 -878.525 106.393 177.327 207.227
 02 10 2023  14 03  -756.424 -877.916 107.323 177.311 207.493
 02 10 2023  14 04  -756.127 -877.075 108.244 177.320 207.742
 02 10 2023  14 05  -756.131 -876.442 109.381 177.255 207.998
 02 10 2023  14 06  -756.635 -876.669 110.439 177.320 208.278
 02 10 2023  14 07  -757.670 -876.731 111.526 177.321 208.509
 02 10 2023  14 08  -757.325 -876.643 112.623 177.305 208.795
 02 10 2023  14 09  -757.164 -876.798 113.776 177.320 209.056
 02 10 2023  14 10  -756.841 -877.287 114.916 177.285 209.314
 02 10 2023  14 11  -756.369 -877.197 116.283 177.310 209.551
 02 10 2023  14 12  -755.817 -876.794 117.609 177.311 209.832
 02 10 2023  14 13  -755.348 -876.553 119.024 177.314 210.085
 02 10 2023  14 14  -754.856 -876.504 120.451 177.311 210.362
 02 10 2023  14 15  -754.540 -876.422 121.881 177.270 210.628
 02 10 2023  14 16  -754.008 -875.958 123.458 177.301 210.854
 02 10 2023  14 17  -753.207 -875.601 124.960 177.299 211.168
 02 10 2023  14 18  -753.701 -875.646 126.589 177.302 211.470
 02 10 2023  14 19  -753.618 -875.008 128.151 177.310 211.731
 02 10 2023  14 20  -752.820 -874.268 129.640 177.279 212.027
 02 10 2023  14 21  -750.599 -873.542 131.518 177.293 212.290
 02 10 2023  14 22  -751.323 -873.104 133.345 177.295 212.587
 02 10 2023  14 23  -751.854 -872.689 134.905 177.284 212.850
 02 10 2023  14 24  -751.948 -872.318 136.428 177.283 213.117
 02 10 2023  14 25  -753.123 -872.642 137.920 177.275 213.394
 02 10 2023  14 26  -754.066 -872.972 139.214 177.281 213.665
 02 10 2023  14 27  -753.705 -873.226 140.511 177.291 213.932
 02 10 2023  14 28  -752.753 -873.326 141.888 177.290 214.210
 02 10 2023  14 29  -752.425 -872.886 143.277 177.285 214.482
 02 10 2023  14 30  -752.299 -872.813 144.630 177.279 214.771
 02 10 2023  14 31  -751.809 -872.709 146.030 177.274 215.074
 02 10 2023  14 32  -751.549 -871.928 147.390 177.283 215.319
 02 10 2023  14 33  -751.019 -871.239 148.691 177.296 215.620
 02 10 2023  14 34  -750.680 -870.558 150.088 177.277 215.896
 02 10 2023  14 35  -750.539 -869.762 151.497 177.246 216.167
 02 10 2023  14 36  -751.353 -869.235 152.857 177.268 216.458
 02 10 2023  14 37  -752.887 -868.922 153.974 177.286 216.748
 02 10 2023  14 38  -753.902 -868.513 154.961 177.274 217.045
 02 10 2023  14 39  -754.493 -867.912 156.072 177.268 217.310
 02 10 2023  14 40  -754.177 -867.139 157.106 177.243 217.610
 02 10 2023  14 41  -754.114 -866.211 158.221 177.282 217.852
 02 10 2023  14 42  -754.894 -865.615 159.340 177.270 218.154
 02 10 2023  14 43  -755.018 -865.055 160.295 177.260 218.440
 02 10 2023  14 44  -754.898 -864.399 161.326 177.271 218.719
 02 10 2023  14 45  -754.531 -863.584 162.220 177.257 218.999
 02 10 2023  14 46  -754.284 -863.165 163.184 177.260 219.308
 02 10 2023  14 47  -753.920 -862.643 164.135 177.268 219.593
 02 10 2023  14 48  -753.659 -862.579 165.085 177.267 219.886
 02 10 2023  14 49  -752.463 -862.408 165.888 177.266 220.194
 02 10 2023  14 50  -751.462 -862.073 166.830 177.238 220.420
 02 10 2023  14 51  -749.855 -861.687 167.801 177.267 220.737
 02 10 2023  14 52  -747.664 -860.623 168.906 177.275 221.011
 02 10 2023  14 53  -745.660 -858.801 169.962 177.267 221.282
 02 10 2023  14 54  -743.269 -856.675 171.296 177.267 221.567
 02 10 2023  14 55  -741.584 -854.468 172.690 177.175 221.815
 02 10 2023  14 56  -739.603 -852.535 174.182 177.258 222.077
 02 10 2023  14 57  -738.482 -850.288 175.734 177.252 222.388
 02 10 2023  14 58  -736.788 -848.455 177.140 177.267 222.660
 02 10 2023  14 59  -735.601 -847.005 178.552 177.255 222.923
 02 10 2023  15 00  -734.208 -845.543 179.966 177.166 223.193
 02 10 2023  15 01  -732.435 -844.255 181.291 177.257 223.500
 02 10 2023  15 02  -731.117 -843.198 182.537 177.257 223.722
 02 10 2023  15 03  -728.916 -841.537 183.668 177.253 223.994
 02 10 2023  15 04  -727.821 -840.806 184.716 177.257 224.226
 02 10 2023  15 05  -726.894 -839.850 185.979 177.215 224.501
 02 10 2023  15 06  -726.407 -838.925 187.034 177.249 224.744
 02 10 2023  15 07  -727.020 -838.454 187.955 177.244 225.000
 02 10 2023  15 08  -728.264 -837.735 188.696 177.253 225.242
 02 10 2023  15 09  -729.230 -837.328 189.467 177.259 225.504
 02 10 2023  15 10  -730.938 -837.187 190.028 177.218 225.777
 02 10 2023  15 11  -733.390 -837.504 190.225 177.259 226.052
 02 10 2023  15 12  -734.461 -836.903 190.467 177.263 226.305
 02 10 2023  15 13  -736.412 -836.196 190.742 177.257 226.531
 02 10 2023  15 14  -738.128 -835.511 190.806 177.255 226.804
 02 10 2023  15 15  -739.316 -834.735 190.881 177.242 227.097
 02 10 2023  15 16  -740.445 -834.195 191.116 177.250 227.334
 02 10 2023  15 17  -742.486 -834.410 191.241 177.257 227.576
 02 10 2023  15 18  -744.493 -834.593 191.153 177.257 227.850
 02 10 2023  15 19  -745.812 -835.103 190.874 177.260 228.125
 02 10 2023  15 20  -746.367 -835.206 190.778 177.218 228.375
 02 10 2023  15 21  -746.565 -835.262 190.830 177.247 228.673
 02 10 2023  15 22  -746.013 -834.009 191.000 177.258 228.968
 02 10 2023  15 23  -744.905 -833.083 191.247 177.246 229.234
 02 10 2023  15 24  -742.690 -831.587 191.772 177.260 229.474
 02 10 2023  15 25  -740.251 -829.450 192.648 177.246 229.734
 02 10 2023  15 26  -738.993 -826.427 193.720 177.242 230.017
 02 10 2023  15 27  -738.525 -825.354 194.570 177.263 230.319
 02 10 2023  15 28  -737.446 -824.057 195.264 177.249 230.549
 02 10 2023  15 29  -736.540 -822.992 196.063 177.243 230.809
 02 10 2023  15 30  -736.667 -822.434 196.638 177.244 231.096
 02 10 2023  15 31  -737.082 -822.003 197.127 177.243 231.365
 02 10 2023  15 32  -738.393 -821.869 197.480 177.249 231.636
 02 10 2023  15 33  -739.952 -822.142 197.597 177.257 231.869
 02 10 2023  15 34  -740.954 -822.174 197.680 177.268 232.125
 02 10 2023  15 35  -741.438 -822.166 197.695 177.240 232.415
 02 10 2023  15 36  -742.354 -822.168 197.819 177.236 232.684
 02 10 2023  15 37  -743.352 -821.972 197.887 177.252 232.964
 02 10 2023  15 38  -743.595 -821.581 197.933 177.252 233.254
 02 10 2023  15 39  -743.434 -821.151 198.039 177.257 233.547
 02 10 2023  15 40  -743.357 -820.755 198.215 177.215 233.819
 02 10 2023  15 41  -743.745 -820.397 198.419 177.249 234.082
 02 10 2023  15 42  -744.248 -820.336 198.561 177.253 234.336
 02 10 2023  15 43  -744.463 -819.939 198.767 177.245 234.643
 02 10 2023  15 44  -744.870 -819.495 199.036 177.245 234.909
 02 10 2023  15 45  -745.650 -818.968 199.214 177.246 235.172
 02 10 2023  15 46  -747.105 -818.883 199.415 177.236 235.446
 02 10 2023  15 47  -748.758 -818.801 199.467 177.263 235.741
 02 10 2023  15 48  -750.282 -818.689 199.516 177.266 235.990
 02 10 2023  15 49  -751.558 -818.720 199.441 177.252 236.224
 02 10 2023  15 50  -752.024 -818.277 199.494 177.227 236.481
 02 10 2023  15 51  -752.559 -817.653 199.667 177.246 236.741
 02 10 2023  15 52  -752.216 -817.001 199.946 177.258 236.981
 02 10 2023  15 53  -751.453 -816.084 200.367 177.247 237.272
 02 10 2023  15 54  -750.915 -815.463 200.910 177.252 237.550
 02 10 2023  15 55  -749.170 -814.328 201.581 177.207 237.821
 02 10 2023  15 56  -747.032 -812.877 202.616 177.241 238.068
 02 10 2023  15 57  -744.767 -811.432 203.912 177.241 238.335
 02 10 2023  15 58  -743.627 -810.056 205.464 177.250 238.563
 02 10 2023  15 59  -742.523 -808.217 206.755 177.253 238.817
 02 10 2023  16 00  -741.869 -806.497 207.900 177.235 239.029
 02 10 2023  16 01  -741.022 -804.943 208.960 177.246 239.295
 02 10 2023  16 02  -741.118 -803.955 210.002 177.247 239.544
 02 10 2023  16 03  -739.935 -802.757 210.717 177.245 239.804
 02 10 2023  16 04  -738.467 -801.838 211.490 177.246 240.031
 02 10 2023  16 05  -735.284 -800.338 212.608 177.234 240.286
 02 10 2023  16 06  -732.219 -798.669 213.918 177.247 240.504
 02 10 2023  16 07  -729.488 -796.780 215.215 177.241 240.759
 02 10 2023  16 08  -726.309 -794.608 216.686 177.242 240.930
 02 10 2023  16 09  -724.048 -792.442 218.160 177.246 241.160
 02 10 2023  16 10  -722.260 -790.704 219.578 177.228 241.404
 02 10 2023  16 11  -720.450 -788.726 221.027 177.238 241.649
 02 10 2023  16 12  -720.758 -787.879 222.326 177.245 241.893
 02 10 2023  16 13  -720.738 -786.759 223.406 177.246 242.116
 02 10 2023  16 14  -721.108 -785.588 224.239 177.249 242.345
 02 10 2023  16 15  -721.546 -783.939 225.089 177.201 242.570
 02 10 2023  16 16  -721.861 -782.688 225.835 177.238 242.788
 02 10 2023  16 17  -721.334 -781.505 226.469 177.250 243.008
 02 10 2023  16 18  -720.963 -780.759 227.186 177.238 243.243
 02 10 2023  16 19  -719.972 -780.009 227.798 177.248 243.459
 02 10 2023  16 20  -718.641 -779.053 228.456 177.192 243.669
 02 10 2023  16 21  -716.516 -777.646 229.141 177.236 243.893
 02 10 2023  16 22  -712.950 -775.599 230.084 177.242 244.132
 02 10 2023  16 23  -709.868 -773.295 231.240 177.246 244.329
 02 10 2023  16 24  -708.539 -772.179 232.350 177.251 244.560
 02 10 2023  16 25  -708.407 -771.443 233.253 177.232 244.720
 02 10 2023  16 26  -708.462 -770.463 233.940 177.240 244.943
 02 10 2023  16 27  -708.509 -769.636 234.415 177.241 245.165
 02 10 2023  16 28  -708.421 -768.855 235.044 177.228 245.390
 02 10 2023  16 29  -708.928 -768.226 235.646 177.233 245.628
 02 10 2023  16 30  -708.527 -767.039 236.296 177.226 245.813
 02 10 2023  16 31  -707.862 -765.781 237.005 177.243 246.047
 02 10 2023  16 32  -707.529 -764.286 237.664 177.245 246.256
 02 10 2023  16 33  -706.301 -762.973 238.291 177.237 246.482
 02 10 2023  16 34  -705.138 -760.956 239.279 177.241 246.677
 02 10 2023  16 35  -704.664 -759.600 240.120 177.231 246.891
 02 10 2023  16 36  -703.824 -758.367 240.875 177.229 247.124
 02 10 2023  16 37  -702.588 -756.145 241.724 177.238 247.318
 02 10 2023  16 38  -703.501 -755.343 242.537 177.239 247.525
 02 10 2023  16 39  -703.450 -754.299 242.980 177.239 247.728
 02 10 2023  16 40  -702.616 -752.403 243.489 177.221 247.895
 02 10 2023  16 41  -702.609 -752.399 244.381 177.237 248.134
 02 10 2023  16 42  -702.722 -751.578 244.647 177.233 248.349
 02 10 2023  16 43  -703.940 -750.708 244.396 177.228 248.542
 02 10 2023  16 44  -703.999 -750.446 244.214 177.237 248.741
 02 10 2023  16 45  -701.122 -750.086 244.633 177.192 248.934
 02 10 2023  16 46  -699.992 -748.558 245.316 177.225 249.122
 02 10 2023  16 47  -700.482 -748.122 246.668 177.234 249.295
 02 10 2023  16 48  -701.153 -747.793 247.098 177.237 249.518
 02 10 2023  16 49  -700.329 -746.139 246.915 177.236 249.713
 02 10 2023  16 50  -699.870 -744.575 246.470 177.184 249.877
 02 10 2023  16 51  -700.020 -743.824 226.435 177.227 250.080
 02 10 2023  16 52  -700.530 -743.009 203.917 177.232 250.263
 02 10 2023  16 53  -701.129 -742.221 216.436 177.246 250.464
 02 10 2023  16 54  -701.315 -741.058 212.358 177.241 250.636
 02 10 2023  16 55  -700.973 -740.283 240.133 177.214 250.816
 02 10 2023  16 56  -700.303 -738.896 131.221 177.236 250.994
 02 10 2023  16 57  -700.294 -737.780 102.488 177.239 251.180
 02 10 2023  16 58  -700.272 -737.153 092.477 177.236 251.331
 02 10 2023  16 59  -700.268 -736.261 151.583 177.237 251.495
 02 10 2023  17 00  -698.985 -734.259 199.406 177.231 251.742
 02 10 2023  17 01  -698.533 -731.376 235.398 177.228 251.923
 02 10 2023  17 02  -698.730 -730.119 223.807 177.232 252.061
 02 10 2023  17 03  -699.274 -728.742 167.783 177.234 252.218
 02 10 2023  17 04  -700.481 -728.914 191.016 177.231 252.422
 02 10 2023  17 05  -699.435 -727.738 231.775 177.221 252.584
 02 10 2023  17 06  -700.273 -726.515 243.113 177.234 252.774
 02 10 2023  17 07  -700.526 -725.801 247.100 177.228 252.925
 02 10 2023  17 08  -701.328 -726.402 247.505 177.223 253.097
 02 10 2023  17 09  -701.670 -726.016 247.132 177.228 253.277
 02 10 2023  17 10  -706.005 -727.516 246.703 177.228 253.451
 02 10 2023  17 11  -707.276 -728.528 245.918 177.225 253.616
 02 10 2023  17 12  -700.257 -728.246 245.813 177.223 253.786
 02 10 2023  17 13  -705.573 -727.901 244.410 177.223 253.937
 02 10 2023  17 14  -704.020 -727.415 245.017 177.220 254.121
 02 10 2023  17 15  -703.366 -726.000 242.537 177.220 254.270
 02 10 2023  17 16  -704.301 -724.520 116.611 177.224 254.428
 02 10 2023  17 17  -703.329 -722.687 051.598 177.222 254.554
 02 10 2023  17 18  -703.313 -721.246 064.790 177.227 254.750
 02 10 2023  17 19  -703.624 -721.291 064.303 177.222 254.903
 02 10 2023  17 20  -704.501 -721.838 067.167 177.229 255.085
 02 10 2023  17 21  -700.577 -720.091 064.968 177.226 255.256
 02 10 2023  17 22  -702.137 -718.301 065.830 177.223 255.408
 02 10 2023  17 23  -701.954 -716.966 053.506 177.230 255.556
 02 10 2023  17 24  -701.560 -715.925 051.479 177.221 255.692
 02 10 2023  17 25  -701.913 -715.181 043.997 177.220 255.846
 02 10 2023  17 26  -702.329 -714.887 046.497 177.229 256.029
 02 10 2023  17 27  -703.229 -715.069 064.006 177.220 256.189
 02 10 2023  17 28  -705.089 -715.322 065.300 177.219 256.350
 02 10 2023  17 29  -707.728 -716.556 123.892 177.226 256.473
 02 10 2023  17 30  -710.362 -718.026 167.033 177.213 256.651
 02 10 2023  17 31  -711.230 -718.441 166.460 177.216 256.837
 02 10 2023  17 32  -711.341 -718.301 127.582 177.216 256.966
 02 10 2023  17 33  -712.772 -719.112 163.615 177.216 257.152
 02 10 2023  17 34  -713.947 -719.464 174.669 177.212 257.292
 02 10 2023  17 35  -714.734 -719.070 185.785 177.216 257.416
 02 10 2023  17 36  -715.812 -719.138 214.340 177.219 257.617
 02 10 2023  17 37  -714.384 -717.134 224.439 177.219 257.741
 02 10 2023  17 38  -712.526 -714.815 221.797 177.223 257.898
 02 10 2023  17 39  -709.335 -711.782 225.377 177.220 258.049
 02 10 2023  17 40  -707.582 -710.456 228.254 177.221 258.161
 02 10 2023  17 41  -708.120 -710.841 229.109 177.213 258.327
 02 10 2023  17 42  -711.127 -712.154 228.951 177.216 258.462
 02 10 2023  17 43  -713.411 -712.652 227.529 177.207 258.596
 02 10 2023  17 44  -714.282 -711.894 224.842 177.209 258.758
 02 10 2023  17 45  -713.287 -710.388 222.044 177.212 258.893
 02 10 2023  17 46  -712.268 -709.331 217.599 177.204 259.035
 02 10 2023  17 47  -710.561 -707.674 215.858 177.213 259.192
 02 10 2023  17 48  -708.753 -705.221 212.298 177.208 259.300
 02 10 2023  17 49  -708.011 -703.621 211.890 177.204 259.457
 02 10 2023  17 50  -707.154 -702.177 205.325 177.208 259.575
 02 10 2023  17 51  -707.153 -701.344 200.843 177.199 259.723
 02 10 2023  17 52  -706.640 -700.250 190.064 177.209 259.876
 02 10 2023  17 53  -705.561 -698.601 146.907 177.202 260.013
 02 10 2023  17 54  -704.741 -697.474 069.579 177.210 260.161
 02 10 2023  17 55  -703.272 -695.809 223.257 177.208 260.340
 02 10 2023  17 56  -702.776 -694.879 223.804 177.202 260.475
 02 10 2023  17 57  -703.398 -694.404 222.243 177.202 260.629
 02 10 2023  17 58  -704.175 -694.338 143.834 177.198 260.764
 02 10 2023  17 59  -704.987 -694.171 -004.091 177.196 260.969
 02 10 2023  18 00  -705.737 -694.501 -006.335 177.177 261.074
 02 10 2023  18 01  -705.940 -694.445 -006.948 177.196 261.264
 02 10 2023  18 02  -706.694 -694.272 -001.204 177.199 261.419
 02 10 2023  18 03  -708.048 -695.047 012.865 177.198 261.588
 02 10 2023  18 04  -707.552 -694.088 015.365 177.193 261.755
 02 10 2023  18 05  -707.202 -693.091 049.351 177.151 261.947
 02 10 2023  18 06  -707.622 -693.330 099.259 177.188 262.142
 02 10 2023  18 07  -706.074 -691.099 195.632 177.188 262.346
 02 10 2023  18 08  -705.598 -689.719 217.799 177.188 262.494
 02 10 2023  18 09  -703.984 -687.722 217.874 177.190 262.694
 02 10 2023  18 10  -701.482 -685.328 217.947 177.190 262.871
 02 10 2023  18 11  -698.211 -682.042 218.244 177.192 263.024
 02 10 2023  18 12  -694.219 -677.467 218.968 177.188 263.229
 02 10 2023  18 13  -690.928 -673.321 220.159 177.192 263.421
 02 10 2023  18 14  -689.493 -671.323 221.033 177.186 263.556
 02 10 2023  18 15  -687.664 -669.221 221.699 177.169 263.760
 02 10 2023  18 16  -683.998 -665.497 222.490 177.185 263.930
 02 10 2023  18 17  -683.368 -664.676 223.085 177.188 264.142
 02 10 2023  18 18  -683.709 -663.531 223.422 177.183 264.336
 02 10 2023  18 19  -685.452 -663.168 223.514 177.184 264.504
 02 10 2023  18 20  -686.948 -663.410 223.229 177.167 264.657
 02 10 2023  18 21  -685.750 -662.951 222.766 177.183 264.836
 02 10 2023  18 22  -684.903 -662.566 222.572 177.176 265.029
 02 10 2023  18 23  -686.506 -663.431 222.201 177.189 265.181
 02 10 2023  18 24  -687.097 -662.692 221.519 177.182 265.357
 02 10 2023  18 25  -687.510 -661.257 221.065 177.177 265.534
 02 10 2023  18 26  -688.570 -660.375 220.578 177.174 265.704
 02 10 2023  18 27  -689.635 -660.850 219.912 177.177 265.881
 02 10 2023  18 28  -690.869 -661.100 219.117 177.170 266.096
 02 10 2023  18 29  -691.855 -661.047 218.263 177.189 266.238
 02 10 2023  18 30  -694.637 -662.198 217.268 177.167 266.391
 02 10 2023  18 31  -697.296 -661.987 216.086 177.176 266.573
 02 10 2023  18 32  -698.431 -661.807 215.069 177.180 266.749
 02 10 2023  18 33  -700.527 -662.372 214.062 177.177 266.951
 02 10 2023  18 34  -702.082 -661.922 213.299 177.169 267.131
 02 10 2023  18 35  -704.286 -663.251 211.920 177.133 267.281
 02 10 2023  18 36  -705.534 -663.691 210.611 177.174 267.420
 02 10 2023  18 37  -706.022 -663.194 209.242 177.177 267.587
 02 10 2023  18 38  -706.997 -663.398 207.939 177.180 267.781
 02 10 2023  18 39  -708.714 -664.323 206.707 177.173 267.948
 02 10 2023  18 40  -710.468 -665.507 204.599 177.130 268.087
 02 10 2023  18 41  -711.684 -665.343 200.080 177.176 268.253
 02 10 2023  18 42  -713.991 -667.575 199.636 177.175 268.375
 02 10 2023  18 43  -714.793 -667.563 198.375 177.172 268.514
 02 10 2023  18 44  -715.100 -667.681 198.557 177.163 268.653
 02 10 2023  18 45  -716.071 -668.379 198.635 177.159 268.813
 02 10 2023  18 46  -717.581 -670.179 197.309 177.163 268.955
 02 10 2023  18 47  -719.956 -672.253 195.910 177.171 269.093
 02 10 2023  18 48  -721.837 -673.185 194.379 177.169 269.251
 02 10 2023  18 49  -724.833 -675.603 192.746 177.173 269.373
 02 10 2023  18 50  -728.498 -678.621 190.808 177.140 269.501
 02 10 2023  18 51  -730.248 -680.112 188.847 177.162 269.680
 02 10 2023  18 52  -732.336 -682.117 187.030 177.165 269.786
 02 10 2023  18 53  -733.673 -683.424 185.134 177.166 269.949
 02 10 2023  18 54  -734.472 -683.952 183.440 177.164 270.075
 02 10 2023  18 55  -733.537 -684.613 180.799 177.108 270.217
 02 10 2023  18 56  -737.708 -686.504 180.343 177.166 270.360
 02 10 2023  18 57  -739.086 -688.451 178.884 177.160 270.488
 02 10 2023  18 58  -740.473 -690.534 177.048 177.169 270.612
 02 10 2023  18 59  -741.438 -692.147 175.510 177.165 270.752
 02 10 2023  19 00  -741.880 -693.511 174.196 177.111 270.874
 02 10 2023  19 01  -742.042 -694.453 173.080 177.164 271.018
 02 10 2023  19 02  -742.424 -695.137 171.968 177.166 271.090
 02 10 2023  19 03  -742.505 -695.499 171.023 177.172 271.267
 02 10 2023  19 04  -743.280 -696.457 170.013 177.167 271.385
 02 10 2023  19 05  -744.316 -697.624 168.422 177.147 271.525
 02 10 2023  19 06  -744.799 -698.299 167.159 177.161 271.620
 02 10 2023  19 07  -745.069 -698.984 166.285 177.164 271.773
 02 10 2023  19 08  -745.092 -699.481 165.629 177.155 271.882
 02 10 2023  19 09  -745.272 -700.396 164.875 177.160 272.001
 02 10 2023  19 10  -745.242 -700.841 164.110 177.105 272.139
 02 10 2023  19 11  -745.329 -701.680 163.583 177.154 272.258
 02 10 2023  19 12  -745.082 -702.150 162.960 177.162 272.372
 02 10 2023  19 13  -745.458 -702.555 162.191 177.162 272.466
 02 10 2023  19 14  -745.373 -702.413 161.334 177.162 272.628
 02 10 2023  19 15  -745.363 -702.091 160.781 177.131 272.747
 02 10 2023  19 16  -745.229 -701.434 160.623 177.150 272.862
 02 10 2023  19 17  -745.287 -701.463 160.228 177.159 273.026
 02 10 2023  19 18  -745.768 -702.033 159.268 177.157 273.152
 02 10 2023  19 19  -745.276 -702.179 154.876 177.158 273.300
 02 10 2023  19 20  -745.046 -702.217 153.799 177.144 273.456
 02 10 2023  19 21  -744.541 -702.525 149.011 177.165 273.583
 02 10 2023  19 22  -744.441 -702.390 146.428 177.156 273.737
 02 10 2023  19 23  -744.868 -702.942 154.032 177.159 273.851
 02 10 2023  19 24  -745.630 -703.807 155.316 177.163 273.983
 02 10 2023  19 25  -745.977 -704.176 155.915 177.160 274.162
 02 10 2023  19 26  -745.633 -704.285 155.764 177.163 274.270
 02 10 2023  19 27  -744.984 -704.094 155.630 177.162 274.412
 02 10 2023  19 28  -743.852 -703.228 155.583 177.157 274.564
 02 10 2023  19 29  -742.838 -702.943 155.419 177.158 274.702
 02 10 2023  19 30  -741.781 -702.570 155.414 177.152 274.855
 02 10 2023  19 31  -740.945 -702.347 155.388 177.151 274.987
 02 10 2023  19 32  -740.171 -701.970 155.331 177.161 275.137
 02 10 2023  19 33  -739.549 -701.136 155.332 177.162 275.255
 02 10 2023  19 34  -739.164 -700.274 155.395 177.163 275.399
 02 10 2023  19 35  -738.023 -699.430 155.370 177.143 275.504
 02 10 2023  19 36  -736.786 -698.695 155.508 177.152 275.638
 02 10 2023  19 37  -736.408 -698.496 155.518 177.156 275.747
 02 10 2023  19 38  -735.173 -697.643 155.457 177.156 275.844
 02 10 2023  19 39  -733.952 -696.510 155.531 177.162 275.977
 02 10 2023  19 40  -733.723 -696.272 155.548 177.131 276.056
 02 10 2023  19 41  -733.705 -696.024 155.448 177.145 276.188
 02 10 2023  19 42  -733.489 -695.388 155.388 177.165 276.319
 02 10 2023  19 43  -733.181 -694.962 155.272 177.162 276.436
 02 10 2023  19 44  -733.101 -694.659 155.056 177.162 276.545
 02 10 2023  19 45  -733.036 -694.355 154.752 177.111 276.685
 02 10 2023  19 46  -733.550 -694.673 154.505 177.149 276.818
 02 10 2023  19 47  -733.872 -694.608 154.129 177.161 276.901
 02 10 2023  19 48  -734.160 -694.526 153.723 177.156 277.021
 02 10 2023  19 49  -734.330 -694.389 153.275 177.159 277.141
 02 10 2023  19 50  -734.683 -694.781 152.791 177.153 277.264
 02 10 2023  19 51  -735.097 -695.110 152.319 177.146 277.388
 02 10 2023  19 52  -734.938 -694.543 151.866 177.157 277.496
 02 10 2023  19 53  -735.187 -694.503 151.394 177.151 277.580
 02 10 2023  19 54  -735.117 -694.103 150.851 177.162 277.685
 02 10 2023  19 55  -735.952 -694.715 150.333 177.109 277.757
 02 10 2023  19 56  -737.053 -695.039 149.740 177.154 277.863
 02 10 2023  19 57  -737.539 -695.124 149.041 177.158 277.972
 02 10 2023  19 58  -738.460 -695.061 148.439 177.164 278.090
 02 10 2023  19 59  -739.674 -695.848 147.595 177.166 278.116
 02 10 2023  20 00  -740.360 -696.009 146.783 177.152 278.230
 02 10 2023  20 01  -741.478 -695.807 145.882 177.151 278.356
 02 10 2023  20 02  -741.995 -696.098 145.211 177.161 278.428
 02 10 2023  20 03  -742.946 -696.824 144.240 177.161 278.500
 02 10 2023  20 04  -744.260 -697.361 143.020 177.155 278.563
 02 10 2023  20 05  -745.108 -698.857 142.097 177.114 278.689
 02 10 2023  20 06  -744.484 -699.838 141.369 177.161 278.733
 02 10 2023  20 07  -744.825 -700.772 140.621 177.166 278.800
 02 10 2023  20 08  -744.200 -701.268 140.925 177.163 278.899
 02 10 2023  20 09  -744.950 -701.869 138.855 177.156 278.999
 02 10 2023  20 10  -744.609 -702.534 137.897 177.146 279.062
 02 10 2023  20 11  -744.468 -702.446 137.195 177.156 279.130
 02 10 2023  20 12  -744.547 -702.643 136.572 177.166 279.187
 02 10 2023  20 13  -744.644 -703.217 135.924 177.163 279.209
 02 10 2023  20 14  -744.590 -703.429 135.302 177.162 279.243
 02 10 2023  20 15  -744.826 -704.727 134.607 177.155 279.308
 02 10 2023  20 16  -744.624 -704.831 133.978 177.151 279.318
 02 10 2023  20 17  -744.720 -705.934 133.228 177.156 279.372
 02 10 2023  20 18  -745.165 -706.597 132.600 177.148 279.368
 02 10 2023  20 19  -745.016 -706.859 131.998 177.160 279.416
 02 10 2023  20 20  -744.182 -706.627 131.339 177.125 279.431
 02 10 2023  20 21  -744.189 -706.340 130.807 177.153 279.454
 02 10 2023  20 22  -744.720 -706.660 130.351 177.164 279.473
 02 10 2023  20 23  -744.854 -706.263 129.641 177.161 279.464
 02 10 2023  20 24  -745.854 -706.687 129.220 177.170 279.492
 02 10 2023  20 25  -746.655 -706.649 128.656 177.134 279.536
 02 10 2023  20 26  -747.911 -707.542 128.081 177.151 279.557
 02 10 2023  20 27  -748.990 -708.740 127.287 177.153 279.566
 02 10 2023  20 28  -749.698 -709.680 126.601 177.162 279.540
 02 10 2023  20 29  -749.910 -710.386 125.961 177.173 279.525
 02 10 2023  20 30  -749.549 -710.636 125.101 177.145 279.527
 02 10 2023  20 31  -749.094 -711.006 124.576 177.165 279.524
 02 10 2023  20 32  -748.408 -710.419 124.357 177.165 279.515
 02 10 2023  20 33  -749.142 -709.909 123.882 177.172 279.512
 02 10 2023  20 34  -748.914 -710.958 123.504 177.164 279.533
 02 10 2023  20 35  -748.818 -711.328 123.111 177.160 279.489
 02 10 2023  20 36  -750.507 -713.431 122.370 177.162 279.512
 02 10 2023  20 37  -750.993 -714.646 121.575 177.164 279.511
 02 10 2023  20 38  -752.106 -715.623 120.546 177.160 279.453
 02 10 2023  20 39  -753.334 -716.225 119.668 177.168 279.390
 02 10 2023  20 40  -753.778 -715.949 118.862 177.153 279.359
 02 10 2023  20 41  -754.034 -715.699 118.245 177.164 279.341
 02 10 2023  20 42  -755.018 -715.356 117.753 177.171 279.309
 02 10 2023  20 43  -756.062 -715.997 117.231 177.175 279.290
 02 10 2023  20 44  -756.703 -716.420 116.696 177.166 279.276
 02 10 2023  20 45  -757.841 -717.867 116.024 177.162 279.212
 02 10 2023  20 46  -758.322 -718.998 115.266 177.166 279.197
 02 10 2023  20 47  -759.308 -719.711 114.513 177.173 279.148
 02 10 2023  20 48  -759.729 -720.487 113.905 177.170 279.139
 02 10 2023  20 49  -759.409 -720.444 113.302 177.173 279.123
 02 10 2023  20 50  -758.381 -719.795 112.785 177.151 279.065
 02 10 2023  20 51  -757.617 -719.512 112.484 177.169 278.975
 02 10 2023  20 52  -756.457 -718.607 112.316 177.172 278.971
 02 10 2023  20 53  -755.763 -718.742 112.292 177.174 278.867
 02 10 2023  20 54  -755.076 -718.410 112.147 177.169 278.817
 02 10 2023  20 55  -754.702 -718.542 112.066 177.150 278.789
 02 10 2023  20 56  -754.191 -718.641 111.961 177.169 278.722
 02 10 2023  20 57  -754.404 -718.801 111.710 177.177 278.700
 02 10 2023  20 58  -754.500 -719.105 111.520 177.182 278.661
 02 10 2023  20 59  -755.029 -720.044 111.236 177.175 278.588
 02 10 2023  21 00  -754.971 -720.363 111.081 177.158 278.531
 02 10 2023  21 01  -754.976 -721.563 111.026 177.164 278.505
 02 10 2023  21 02  -755.574 -721.967 110.433 177.181 278.469
 02 10 2023  21 03  -756.128 -722.322 109.855 177.176 278.395
 02 10 2023  21 04  -755.916 -722.184 109.273 177.179 278.341
 02 10 2023  21 05  -755.156 -721.845 108.695 177.163 278.294
 02 10 2023  21 06  -755.141 -721.239 108.385 177.176 278.256
 02 10 2023  21 07  -754.213 -720.904 108.376 177.173 278.214
 02 10 2023  21 08  -754.880 -721.090 108.070 177.183 278.156
 02 10 2023  21 09  -755.198 -721.160 107.622 177.182 278.077
 02 10 2023  21 10  -754.884 -721.307 107.520 177.113 278.043
 02 10 2023  21 11  -755.141 -720.825 107.079 177.173 277.988
 02 10 2023  21 12  -755.063 -720.378 106.903 177.180 277.940
 02 10 2023  21 13  -755.870 -720.986 106.732 177.183 277.876
 02 10 2023  21 14  -757.427 -721.950 106.284 177.179 277.824
 02 10 2023  21 15  -758.547 -722.755 105.644 177.158 277.761
 02 10 2023  21 16  -757.848 -722.239 105.193 177.177 277.724
 02 10 2023  21 17  -757.551 -721.896 105.003 177.182 277.687
 02 10 2023  21 18  -757.653 -721.708 104.707 177.182 277.628
 02 10 2023  21 19  -757.705 -722.076 104.359 177.185 277.605
 02 10 2023  21 20  -757.646 -721.816 104.139 177.158 277.539
 02 10 2023  21 21  -757.676 -721.628 103.892 177.173 277.454
 02 10 2023  21 22  -757.734 -721.850 103.683 177.182 277.386
 02 10 2023  21 23  -757.810 -722.282 103.422 177.180 277.302
 02 10 2023  21 24  -758.500 -723.301 103.166 177.179 277.236
 02 10 2023  21 25  -758.731 -723.451 102.790 177.165 277.229
 02 10 2023  21 26  -759.249 -724.187 102.477 177.181 277.199
 02 10 2023  21 27  -759.387 -724.386 102.092 177.186 277.141
 02 10 2023  21 28  -759.958 -724.970 101.728 177.184 277.062
 02 10 2023  21 29  -761.576 -726.125 101.359 177.179 277.029
 02 10 2023  21 30  -762.342 -727.151 100.782 177.140 277.004
 02 10 2023  21 31  -762.853 -727.580 100.331 177.180 276.919
 02 10 2023  21 32  -763.562 -728.195 099.916 177.188 276.857
 02 10 2023  21 33  -764.033 -727.732 099.583 177.196 276.794
 02 10 2023  21 34  -764.184 -728.346 099.259 177.184 276.816
 02 10 2023  21 35  -763.089 -728.679 099.073 177.165 276.753
 02 10 2023  21 36  -762.329 -727.664 098.834 177.188 276.702
 02 10 2023  21 37  -761.325 -727.382 098.618 177.183 276.639
 02 10 2023  21 38  -760.877 -727.551 098.763 177.185 276.597
 02 10 2023  21 39  -761.228 -727.975 098.536 177.188 276.567
 02 10 2023  21 40  -761.466 -728.713 098.428 177.182 276.548
 02 10 2023  21 41  -761.531 -729.302 098.148 177.195 276.554
 02 10 2023  21 42  -761.696 -730.129 097.811 177.196 276.508
 02 10 2023  21 43  -762.400 -730.680 097.516 177.192 276.515
 02 10 2023  21 44  -762.369 -730.824 097.132 177.197 276.461
 02 10 2023  21 45  -761.898 -730.781 096.827 177.180 276.436
 02 10 2023  21 46  -761.731 -730.613 096.656 177.199 276.425
 02 10 2023  21 47  -761.573 -730.405 096.391 177.199 276.408
 02 10 2023  21 48  -761.127 -730.510 096.162 177.201 276.406
 02 10 2023  21 49  -760.237 -729.824 096.123 177.197 276.358
 02 10 2023  21 50  -759.680 -729.464 096.014 177.173 276.349
 02 10 2023  21 51  -758.985 -729.045 096.048 177.193 276.304
 02 10 2023  21 52  -758.258 -729.082 096.106 177.198 276.261
 02 10 2023  21 53  -758.225 -729.123 096.024 177.205 276.287
 02 10 2023  21 54  -758.212 -729.339 095.842 177.203 276.246
 02 10 2023  21 55  -758.346 -729.541 095.684 177.197 276.276
 02 10 2023  21 56  -758.529 -729.996 095.494 177.198 276.280
 02 10 2023  21 57  -758.401 -730.071 095.221 177.204 276.223
 02 10 2023  21 58  -758.721 -730.653 095.053 177.207 276.260
 02 10 2023  21 59  -760.421 -732.311 094.616 177.215 276.279
 02 10 2023  22 00  -762.384 -734.053 093.848 177.170 276.280
 02 10 2023  22 01  -764.099 -735.361 093.164 177.202 276.280
 02 10 2023  22 02  -763.874 -735.063 092.287 177.216 276.305
 02 10 2023  22 03  -765.354 -736.850 092.076 177.209 276.328
 02 10 2023  22 04  -764.754 -737.144 091.814 177.216 276.356
 02 10 2023  22 05  -764.268 -737.929 091.471 177.206 276.360
 02 10 2023  22 06  -765.904 -739.238 091.108 177.205 276.395
 02 10 2023  22 07  -766.601 -740.491 090.756 177.221 276.424
 02 10 2023  22 08  -766.719 -740.874 090.271 177.221 276.450
 02 10 2023  22 09  -766.713 -741.213 089.987 177.217 276.473
 02 10 2023  22 10  -766.597 -742.368 089.780 177.174 276.506
 02 10 2023  22 11  -766.433 -742.819 089.653 177.219 276.579
 02 10 2023  22 12  -767.177 -743.701 089.325 177.217 276.593
 02 10 2023  22 13  -767.752 -744.475 089.105 177.223 276.620
 02 10 2023  22 14  -768.593 -744.962 088.893 177.224 276.656
 02 10 2023  22 15  -769.270 -745.649 088.572 177.204 276.730
 02 10 2023  22 16  -769.227 -746.153 088.406 177.214 276.786
 02 10 2023  22 17  -769.272 -746.457 088.113 177.223 276.814
 02 10 2023  22 18  -768.979 -747.251 088.165 177.229 276.886
 02 10 2023  22 19  -768.626 -747.786 088.168 177.217 276.910
 02 10 2023  22 20  -768.113 -747.714 088.130 177.210 276.952
 02 10 2023  22 21  -767.688 -747.858 088.175 177.223 276.958
 02 10 2023  22 22  -767.777 -748.145 088.049 177.226 276.996
 02 10 2023  22 23  -767.655 -748.584 088.019 177.223 277.084
 02 10 2023  22 24  -767.421 -748.833 088.108 177.227 277.141
 02 10 2023  22 25  -767.125 -748.767 088.186 177.209 277.170
 02 10 2023  22 26  -768.023 -748.378 088.045 177.213 277.248
 02 10 2023  22 27  -769.822 -748.477 087.730 177.226 277.257
 02 10 2023  22 28  -770.214 -749.052 087.645 177.232 277.296
 02 10 2023  22 29  -770.379 -749.430 087.653 177.229 277.355
 02 10 2023  22 30  -771.031 -750.053 087.450 177.217 277.369
 02 10 2023  22 31  -771.235 -750.330 087.499 177.231 277.418
 02 10 2023  22 32  -771.061 -750.378 087.653 177.236 277.455
 02 10 2023  22 33  -770.935 -749.956 087.525 177.236 277.480
 02 10 2023  22 34  -770.792 -749.990 087.717 177.242 277.534
 02 10 2023  22 35  -770.411 -750.027 088.093 177.132 277.583
 02 10 2023  22 36  -770.346 -750.100 088.246 177.234 277.550
 02 10 2023  22 37  -770.388 -750.294 088.417 177.235 277.566
 02 10 2023  22 38  -771.408 -750.874 088.390 177.240 277.609
 02 10 2023  22 39  -771.328 -751.049 088.141 177.239 277.600
 02 10 2023  22 40  -770.461 -751.169 088.309 177.240 277.584
 02 10 2023  22 41  -769.953 -751.332 088.582 177.236 277.558
 02 10 2023  22 42  -769.504 -751.361 088.865 177.239 277.548
 02 10 2023  22 43  -769.387 -751.524 089.082 177.246 277.557
 02 10 2023  22 44  -768.974 -751.481 089.227 177.246 277.532
 02 10 2023  22 45  -768.258 -751.586 089.374 177.188 277.507
 02 10 2023  22 46  -767.560 -751.433 089.602 177.245 277.512
 02 10 2023  22 47  -767.559 -751.847 089.768 177.254 277.484
 02 10 2023  22 48  -766.302 -751.796 089.996 177.253 277.489
 02 10 2023  22 49  -765.502 -751.961 090.288 177.258 277.456
 02 10 2023  22 50  -765.121 -752.403 090.428 177.232 277.393
 02 10 2023  22 51  -764.629 -752.619 090.671 177.243 277.322
 02 10 2023  22 52  -765.187 -752.779 090.842 177.261 277.306
 02 10 2023  22 53  -765.229 -753.043 090.916 177.262 277.239
 02 10 2023  22 54  -764.717 -752.755 090.991 177.260 277.227
 02 10 2023  22 55  -764.410 -752.258 091.147 177.228 277.125
 02 10 2023  22 56  -764.509 -752.050 091.265 177.262 277.075
 02 10 2023  22 57  -764.104 -751.889 091.409 177.259 277.034
 02 10 2023  22 58  -763.206 -751.700 091.631 177.265 276.952
 02 10 2023  22 59  -762.269 -751.258 091.811 177.260 276.913
 02 10 2023  23 00  -761.495 -750.854 092.468 177.251 276.823
 02 10 2023  23 01  -758.617 -748.414 093.707 177.256 276.727
 02 10 2023  23 02  -757.738 -748.193 094.007 177.267 276.650
 02 10 2023  23 03  -757.880 -747.586 094.201 177.268 276.565
 02 10 2023  23 04  -757.934 -747.746 094.258 177.272 276.461
 02 10 2023  23 05  -758.223 -747.567 093.952 177.264 276.398
 02 10 2023  23 06  -758.229 -747.159 093.799 177.273 276.306
 02 10 2023  23 07  -758.282 -746.886 093.914 177.277 276.232
 02 10 2023  23 08  -757.946 -746.479 094.003 177.279 276.122
 02 10 2023  23 09  -757.466 -745.984 094.059 177.282 276.018
 02 10 2023  23 10  -757.351 -746.009 094.367 177.243 275.949
 02 10 2023  23 11  -756.291 -745.905 094.699 177.279 275.836
 02 10 2023  23 12  -754.967 -745.691 094.850 177.287 275.723
 02 10 2023  23 13  -754.190 -745.577 094.969 177.287 275.638
 02 10 2023  23 14  -752.899 -745.345 095.167 177.291 275.553
 02 10 2023  23 15  -752.179 -745.332 095.265 177.288 275.435
 02 10 2023  23 16  -751.941 -745.463 095.208 177.292 275.323
 02 10 2023  23 17  -751.911 -745.517 095.088 177.291 275.195
 02 10 2023  23 18  -751.896 -745.604 095.003 177.305 275.111
 02 10 2023  23 19  -751.960 -745.507 094.895 177.296 274.979
 02 10 2023  23 20  -752.582 -745.341 094.700 177.275 274.870
 02 10 2023  23 21  -753.048 -745.314 094.564 177.299 274.736
 02 10 2023  23 22  -753.437 -745.249 094.541 177.301 274.625
 02 10 2023  23 23  -753.499 -745.158 094.424 177.308 274.511
 02 10 2023  23 24  -753.642 -745.065 094.459 177.307 274.389
 02 10 2023  23 25  -753.547 -743.634 094.986 177.299 274.282
 02 10 2023  23 26  -753.158 -743.588 095.010 177.307 274.179
 02 10 2023  23 27  -752.199 -743.910 094.946 177.307 274.085
 02 10 2023  23 28  -752.038 -744.132 094.945 177.319 273.937
 02 10 2023  23 29  -752.062 -744.272 094.822 177.316 273.771
 02 10 2023  23 30  -751.905 -744.185 094.704 177.309 273.648
 02 10 2023  23 31  -752.167 -744.473 094.535 177.311 273.526
 02 10 2023  23 32  -752.339 -744.678 094.459 177.320 273.390
 02 10 2023  23 33  -752.505 -744.791 094.291 177.333 273.269
 02 10 2023  23 34  -753.136 -744.932 094.080 177.320 273.179
 02 10 2023  23 35  -753.787 -745.163 093.797 177.317 273.018
 02 10 2023  23 36  -754.579 -745.058 093.548 177.325 272.867
 02 10 2023  23 37  -755.124 -745.215 093.371 177.328 272.773
 02 10 2023  23 38  -755.396 -745.051 092.950 177.333 272.645
 02 10 2023  23 39  -755.145 -745.062 092.717 177.334 272.492
 02 10 2023  23 40  -754.350 -745.129 092.739 177.306 272.377
 02 10 2023  23 41  -754.332 -745.248 092.604 177.336 272.224
 02 10 2023  23 42  -754.003 -745.190 092.476 177.344 272.128
 02 10 2023  23 43  -753.867 -745.200 092.352 177.344 271.972
 02 10 2023  23 44  -753.267 -745.163 092.264 177.340 271.828
 02 10 2023  23 45  -752.731 -745.080 092.098 177.330 271.735
 02 10 2023  23 46  -752.169 -745.090 092.023 177.339 271.562
 02 10 2023  23 47  -751.418 -744.844 091.879 177.344 271.425
 02 10 2023  23 48  -750.691 -744.670 091.896 177.352 271.298
 02 10 2023  23 49  -750.284 -744.376 091.794 177.355 271.172
 02 10 2023  23 50  -749.543 -744.316 091.750 177.319 271.079
 02 10 2023  23 51  -748.607 -743.823 091.797 177.352 270.901
 02 10 2023  23 52  -747.542 -743.572 091.820 177.354 270.785
 02 10 2023  23 53  -746.301 -743.527 091.879 177.356 270.646
 02 10 2023  23 54  -745.181 -743.732 091.943 177.366 270.492
 02 10 2023  23 55  -744.607 -743.944 091.942 177.348 270.348
 02 10 2023  23 56  -744.185 -744.582 091.958 177.353 270.160
 02 10 2023  23 57  -744.416 -745.231 091.799 177.370 270.029
 02 10 2023  23 58  -747.350 -746.336 091.802 177.363 269.910
 02 10 2023  23 59  -746.533 -746.095 091.338 177.366 269.756
