CHILLAN EMBRACE-14 <312> 1 Min. Reported data

 DD MM YYYY  HH MM   D(Deg)  H(nT)   Z(nT)   I(Deg)   F(nT)

 08 11 2023  00 00  03.9825 19178.3 -14989.0 -38.0097 24340.8
 08 11 2023  00 01  03.9824 19177.7 -14989.1 -38.0107 24340.4
 08 11 2023  00 02  03.9823 19177.1 -14989.2 -38.0118 24340.0
 08 11 2023  00 03  03.9825 19176.5 -14989.2 -38.0128 24339.5
 08 11 2023  00 04  03.9828 19176.0 -14989.3 -38.0136 24339.2
 08 11 2023  00 05  03.9833 19176.2 -14989.4 -38.0135 24339.4
 08 11 2023  00 06  03.9842 19176.9 -14989.4 -38.0125 24340.0
 08 11 2023  00 07  03.9850 19177.4 -14989.4 -38.0118 24340.4
 08 11 2023  00 08  03.9856 19178.0 -14989.4 -38.0109 24340.8
 08 11 2023  00 09  03.9865 19178.8 -14989.4 -38.0096 24341.5
 08 11 2023  00 10  03.9870 19179.7 -14989.3 -38.0081 24342.1
 08 11 2023  00 11  03.9874 19180.5 -14989.2 -38.0068 24342.7
 08 11 2023  00 12  03.9875 19181.0 -14989.1 -38.0061 24343.0
 08 11 2023  00 13  03.9874 19181.0 -14989.1 -38.0059 24343.1
 08 11 2023  00 14  03.9876 19181.0 -14989.1 -38.0060 24343.0
 08 11 2023  00 15  03.9881 19181.2 -14989.2 -38.0058 24343.2
 08 11 2023  00 16  03.9885 19181.3 -14989.2 -38.0057 24343.4
 08 11 2023  00 17  03.9890 19181.4 -14989.2 -38.0056 24343.4
 08 11 2023  00 18  03.9890 19181.5 -14989.2 -38.0055 24343.5
 08 11 2023  00 19  03.9891 19181.4 -14989.2 -38.0056 24343.5
 08 11 2023  00 20  03.9890 19181.4 -14989.3 -38.0057 24343.4
 08 11 2023  00 21  03.9885 19181.3 -14989.3 -38.0058 24343.4
 08 11 2023  00 22  03.9879 19181.0 -14989.3 -38.0063 24343.2
 08 11 2023  00 23  03.9873 19180.6 -14989.4 -38.0071 24342.9
 08 11 2023  00 24  03.9871 19180.4 -14989.5 -38.0075 24342.8
 08 11 2023  00 25  03.9874 19180.3 -14989.5 -38.0077 24342.7
 08 11 2023  00 26  03.9866 19180.3 -14989.5 -38.0078 24342.8
 08 11 2023  00 27  03.9865 19180.4 -14989.6 -38.0077 24342.8
 08 11 2023  00 28  03.9856 19179.7 -14989.5 -38.0087 24342.3
 08 11 2023  00 29  03.9864 19180.0 -14989.6 -38.0084 24342.6
 08 11 2023  00 30  03.9857 19181.2 -14989.6 -38.0066 24343.5
 08 11 2023  00 31  03.9853 19181.7 -14989.6 -38.0058 24343.8
 08 11 2023  00 32  03.9848 19182.0 -14989.6 -38.0054 24344.1
 08 11 2023  00 33  03.9845 19181.9 -14989.6 -38.0056 24344.1
 08 11 2023  00 34  03.9850 19181.6 -14989.7 -38.0063 24343.9
 08 11 2023  00 35  03.9863 19181.5 -14989.9 -38.0067 24343.9
 08 11 2023  00 36  03.9875 19181.5 -14990.0 -38.0068 24344.0
 08 11 2023  00 37  03.9881 19181.4 -14990.0 -38.0071 24343.9
 08 11 2023  00 38  03.9884 19181.3 -14990.0 -38.0073 24343.8
 08 11 2023  00 39  03.9882 19181.0 -14990.1 -38.0078 24343.6
 08 11 2023  00 40  03.9876 19180.6 -14990.1 -38.0083 24343.4
 08 11 2023  00 41  03.9867 19180.2 -14990.2 -38.0091 24343.1
 08 11 2023  00 42  03.9879 19180.3 -14990.2 -38.0091 24343.2
 08 11 2023  00 43  03.9846 19180.1 -14990.2 -38.0092 24343.0
 08 11 2023  00 44  03.9846 19180.2 -14990.2 -38.0092 24343.1
 08 11 2023  00 45  03.9842 19181.7 -14990.3 -38.0071 24344.3
 08 11 2023  00 46  03.9827 19181.2 -14990.3 -38.0078 24344.0
 08 11 2023  00 47  03.9823 19179.9 -14990.4 -38.0099 24343.0
 08 11 2023  00 48  03.9833 19179.9 -14990.5 -38.0103 24343.1
 08 11 2023  00 49  03.9827 19180.1 -14990.6 -38.0100 24343.2
 08 11 2023  00 50  03.9827 19179.5 -14990.7 -38.0111 24342.8
 08 11 2023  00 51  03.9833 19179.6 -14990.8 -38.0111 24342.9
 08 11 2023  00 52  03.9837 19180.6 -14990.8 -38.0096 24343.8
 08 11 2023  00 53  03.9833 19181.1 -14990.8 -38.0088 24344.2
 08 11 2023  00 54  03.9827 19181.3 -14990.8 -38.0087 24344.3
 08 11 2023  00 55  03.9820 19180.9 -14990.8 -38.0093 24344.0
 08 11 2023  00 56  03.9811 19180.6 -14990.9 -38.0098 24343.9
 08 11 2023  00 57  03.9810 19180.5 -14991.0 -38.0102 24343.9
 08 11 2023  00 58  03.9813 19180.8 -14991.1 -38.0099 24344.1
 08 11 2023  00 59  03.9821 19181.2 -14991.1 -38.0094 24344.5
 08 11 2023  01 00  03.9832 19182.1 -14991.2 -38.0082 24345.2
 08 11 2023  01 01  03.9840 19182.7 -14991.1 -38.0072 24345.6
 08 11 2023  01 02  03.9844 19182.8 -14991.1 -38.0070 24345.7
 08 11 2023  01 03  03.9839 19182.3 -14991.0 -38.0077 24345.2
 08 11 2023  01 04  03.9839 19181.6 -14991.1 -38.0088 24344.7
 08 11 2023  01 05  03.9844 19181.0 -14991.2 -38.0098 24344.3
 08 11 2023  01 06  03.9849 19180.6 -14991.2 -38.0105 24344.0
 08 11 2023  01 07  03.9846 19180.4 -14991.3 -38.0108 24343.9
 08 11 2023  01 08  03.9844 19180.3 -14991.3 -38.0111 24343.8
 08 11 2023  01 09  03.9848 19180.6 -14991.3 -38.0108 24344.1
 08 11 2023  01 10  03.9854 19181.4 -14991.4 -38.0095 24344.8
 08 11 2023  01 11  03.9851 19182.2 -14991.3 -38.0084 24345.4
 08 11 2023  01 12  03.9842 19182.0 -14991.3 -38.0086 24345.2
 08 11 2023  01 13  03.9837 19181.5 -14991.4 -38.0095 24344.8
 08 11 2023  01 14  03.9831 19181.2 -14991.5 -38.0100 24344.7
 08 11 2023  01 15  03.9819 19181.2 -14991.6 -38.0103 24344.7
 08 11 2023  01 16  03.9809 19180.9 -14991.7 -38.0109 24344.5
 08 11 2023  01 17  03.9802 19180.7 -14991.8 -38.0114 24344.5
 08 11 2023  01 18  03.9794 19180.7 -14991.9 -38.0115 24344.5
 08 11 2023  01 19  03.9789 19180.8 -14991.9 -38.0115 24344.7
 08 11 2023  01 20  03.9786 19180.9 -14992.0 -38.0114 24344.7
 08 11 2023  01 21  03.9783 19181.1 -14992.0 -38.0112 24344.9
 08 11 2023  01 22  03.9774 19181.3 -14992.0 -38.0110 24345.1
 08 11 2023  01 23  03.9768 19180.9 -14992.1 -38.0115 24344.8
 08 11 2023  01 24  03.9765 19180.2 -14992.1 -38.0127 24344.3
 08 11 2023  01 25  03.9771 19180.1 -14992.2 -38.0130 24344.2
 08 11 2023  01 26  03.9770 19180.2 -14992.2 -38.0130 24344.3
 08 11 2023  01 27  03.9762 19179.8 -14992.2 -38.0135 24344.0
 08 11 2023  01 28  03.9757 19178.9 -14992.3 -38.0148 24343.4
 08 11 2023  01 29  03.9756 19178.2 -14992.4 -38.0160 24342.9
 08 11 2023  01 30  03.9760 19178.4 -14992.4 -38.0158 24343.1
 08 11 2023  01 31  03.9757 19178.6 -14992.4 -38.0155 24343.2
 08 11 2023  01 32  03.9753 19178.6 -14992.5 -38.0157 24343.2
 08 11 2023  01 33  03.9752 19178.4 -14992.5 -38.0160 24343.1
 08 11 2023  01 34  03.9760 19178.5 -14992.5 -38.0159 24343.2
 08 11 2023  01 35  03.9765 19179.2 -14992.5 -38.0148 24343.7
 08 11 2023  01 36  03.9761 19180.2 -14992.4 -38.0132 24344.5
 08 11 2023  01 37  03.9764 19180.5 -14992.4 -38.0129 24344.7
 08 11 2023  01 38  03.9777 19180.6 -14992.4 -38.0127 24344.8
 08 11 2023  01 39  03.9775 19181.3 -14992.4 -38.0116 24345.3
 08 11 2023  01 40  03.9749 19181.6 -14992.4 -38.0110 24345.6
 08 11 2023  01 41  03.9733 19181.1 -14992.4 -38.0119 24345.2
 08 11 2023  01 42  03.9732 19180.5 -14992.5 -38.0130 24344.7
 08 11 2023  01 43  03.9737 19180.8 -14992.6 -38.0128 24345.0
 08 11 2023  01 44  03.9732 19181.3 -14992.6 -38.0121 24345.4
 08 11 2023  01 45  03.9728 19181.5 -14992.7 -38.0119 24345.6
 08 11 2023  01 46  03.9732 19181.8 -14992.7 -38.0115 24345.9
 08 11 2023  01 47  03.9734 19181.8 -14992.7 -38.0116 24345.9
 08 11 2023  01 48  03.9734 19182.5 -14992.8 -38.0106 24346.5
 08 11 2023  01 49  03.9712 19182.4 -14992.8 -38.0109 24346.4
 08 11 2023  01 50  03.9680 19180.7 -14992.9 -38.0135 24345.2
 08 11 2023  01 51  03.9670 19178.9 -14993.1 -38.0166 24343.8
 08 11 2023  01 52  03.9675 19177.7 -14993.3 -38.0185 24343.1
 08 11 2023  01 53  03.9677 19177.5 -14993.4 -38.0190 24343.0
 08 11 2023  01 54  03.9669 19178.1 -14993.5 -38.0183 24343.4
 08 11 2023  01 55  03.9651 19177.7 -14993.6 -38.0191 24343.2
 08 11 2023  01 56  03.9649 19177.3 -14993.7 -38.0198 24342.9
 08 11 2023  01 57  03.9648 19176.5 -14993.8 -38.0212 24342.4
 08 11 2023  01 58  03.9644 19176.6 -14993.9 -38.0213 24342.5
 08 11 2023  01 59  03.9632 19176.1 -14994.0 -38.0221 24342.2
 08 11 2023  02 00  03.9622 19175.3 -14994.1 -38.0234 24341.6
 08 11 2023  02 01  03.9636 19174.9 -14994.2 -38.0243 24341.4
 08 11 2023  02 02  03.9648 19174.8 -14994.2 -38.0245 24341.3
 08 11 2023  02 03  03.9650 19175.4 -14994.2 -38.0236 24341.8
 08 11 2023  02 04  03.9636 19175.0 -14994.3 -38.0243 24341.5
 08 11 2023  02 05  03.9638 19176.3 -14994.4 -38.0226 24342.6
 08 11 2023  02 06  03.9633 19176.6 -14994.4 -38.0222 24342.8
 08 11 2023  02 07  03.9630 19176.6 -14994.4 -38.0222 24342.9
 08 11 2023  02 08  03.9620 19177.0 -14994.4 -38.0217 24343.1
 08 11 2023  02 09  03.9607 19177.0 -14994.5 -38.0217 24343.2
 08 11 2023  02 10  03.9597 19178.0 -14994.6 -38.0204 24344.0
 08 11 2023  02 11  03.9599 19178.2 -14994.6 -38.0203 24344.2
 08 11 2023  02 12  03.9601 19177.7 -14994.6 -38.0211 24343.8
 08 11 2023  02 13  03.9600 19177.7 -14994.7 -38.0212 24343.9
 08 11 2023  02 14  03.9603 19178.9 -14994.7 -38.0194 24344.9
 08 11 2023  02 15  03.9582 19178.8 -14994.7 -38.0196 24344.7
 08 11 2023  02 16  03.9591 19179.0 -14994.8 -38.0195 24345.0
 08 11 2023  02 17  03.9602 19179.7 -14994.9 -38.0186 24345.6
 08 11 2023  02 18  03.9602 19179.9 -14994.9 -38.0182 24345.8
 08 11 2023  02 19  03.9597 19180.1 -14994.9 -38.0180 24345.9
 08 11 2023  02 20  03.9597 19180.0 -14994.9 -38.0182 24345.8
 08 11 2023  02 21  03.9598 19180.0 -14995.0 -38.0183 24345.8
 08 11 2023  02 22  03.9596 19179.9 -14995.0 -38.0184 24345.8
 08 11 2023  02 23  03.9598 19179.5 -14995.0 -38.0190 24345.5
 08 11 2023  02 24  03.9602 19179.3 -14995.0 -38.0194 24345.4
 08 11 2023  02 25  03.9602 19179.7 -14995.0 -38.0189 24345.7
 08 11 2023  02 26  03.9601 19179.8 -14995.0 -38.0186 24345.8
 08 11 2023  02 27  03.9600 19179.8 -14995.0 -38.0186 24345.8
 08 11 2023  02 28  03.9601 19179.4 -14995.0 -38.0193 24345.4
 08 11 2023  02 29  03.9604 19178.8 -14995.0 -38.0201 24345.0
 08 11 2023  02 30  03.9605 19178.7 -14995.1 -38.0204 24344.9
 08 11 2023  02 31  03.9607 19178.4 -14995.1 -38.0207 24344.7
 08 11 2023  02 32  03.9611 19177.8 -14995.1 -38.0217 24344.2
 08 11 2023  02 33  03.9612 19176.5 -14995.1 -38.0235 24343.2
 08 11 2023  02 34  03.9612 19176.3 -14995.1 -38.0239 24343.0
 08 11 2023  02 35  03.9614 19176.5 -14995.1 -38.0236 24343.2
 08 11 2023  02 36  03.9618 19176.8 -14995.1 -38.0231 24343.4
 08 11 2023  02 37  03.9621 19176.9 -14995.0 -38.0228 24343.5
 08 11 2023  02 38  03.9623 19177.0 -14995.0 -38.0226 24343.6
 08 11 2023  02 39  03.9627 19177.6 -14995.0 -38.0218 24344.0
 08 11 2023  02 40  03.9626 19177.7 -14995.0 -38.0216 24344.1
 08 11 2023  02 41  03.9627 19177.2 -14995.0 -38.0224 24343.6
 08 11 2023  02 42  03.9627 19177.5 -14995.0 -38.0219 24343.9
 08 11 2023  02 43  03.9629 19177.3 -14995.0 -38.0222 24343.8
 08 11 2023  02 44  03.9636 19177.6 -14995.0 -38.0218 24344.0
 08 11 2023  02 45  03.9640 19177.9 -14995.0 -38.0213 24344.3
 08 11 2023  02 46  03.9641 19178.1 -14995.0 -38.0211 24344.4
 08 11 2023  02 47  03.9645 19178.0 -14995.0 -38.0212 24344.3
 08 11 2023  02 48  03.9650 19177.8 -14995.0 -38.0214 24344.2
 08 11 2023  02 49  03.9655 19177.6 -14995.0 -38.0218 24343.9
 08 11 2023  02 50  03.9656 19177.3 -14995.0 -38.0222 24343.8
 08 11 2023  02 51  03.9655 19177.2 -14995.0 -38.0224 24343.7
 08 11 2023  02 52  03.9660 19176.8 -14995.0 -38.0230 24343.4
 08 11 2023  02 53  03.9657 19175.8 -14995.0 -38.0245 24342.6
 08 11 2023  02 54  03.9651 19174.7 -14995.1 -38.0263 24341.8
 08 11 2023  02 55  03.9652 19174.8 -14995.2 -38.0262 24341.9
 08 11 2023  02 56  03.9654 19174.9 -14995.2 -38.0263 24342.0
 08 11 2023  02 57  03.9659 19175.6 -14995.3 -38.0252 24342.6
 08 11 2023  02 58  03.9660 19176.5 -14995.2 -38.0239 24343.3
 08 11 2023  02 59  03.9653 19176.7 -14995.2 -38.0236 24343.4
 08 11 2023  03 00  03.9650 19176.8 -14995.2 -38.0234 24343.5
 08 11 2023  03 01  03.9648 19176.4 -14995.3 -38.0241 24343.2
 08 11 2023  03 02  03.9652 19175.7 -14995.3 -38.0252 24342.7
 08 11 2023  03 03  03.9653 19174.8 -14995.4 -38.0266 24342.0
 08 11 2023  03 04  03.9656 19174.5 -14995.5 -38.0272 24341.8
 08 11 2023  03 05  03.9659 19174.7 -14995.5 -38.0270 24342.0
 08 11 2023  03 06  03.9658 19175.1 -14995.5 -38.0265 24342.3
 08 11 2023  03 07  03.9655 19175.4 -14995.6 -38.0261 24342.6
 08 11 2023  03 08  03.9651 19175.2 -14995.6 -38.0263 24342.5
 08 11 2023  03 09  03.9647 19174.7 -14995.6 -38.0271 24342.1
 08 11 2023  03 10  03.9647 19174.1 -14995.7 -38.0282 24341.6
 08 11 2023  03 11  03.9651 19172.7 -14995.7 -38.0303 24340.6
 08 11 2023  03 12  03.9664 19172.5 -14995.8 -38.0308 24340.5
 08 11 2023  03 13  03.9670 19172.9 -14995.8 -38.0302 24340.8
 08 11 2023  03 14  03.9666 19173.7 -14995.8 -38.0290 24341.4
 08 11 2023  03 15  03.9655 19174.1 -14995.8 -38.0283 24341.7
 08 11 2023  03 16  03.9647 19174.2 -14995.8 -38.0282 24341.8
 08 11 2023  03 17  03.9652 19173.7 -14995.8 -38.0291 24341.4
 08 11 2023  03 18  03.9655 19173.0 -14995.8 -38.0301 24340.9
 08 11 2023  03 19  03.9654 19172.7 -14995.9 -38.0306 24340.7
 08 11 2023  03 20  03.9654 19173.0 -14995.9 -38.0302 24340.9
 08 11 2023  03 21  03.9652 19173.7 -14995.9 -38.0292 24341.5
 08 11 2023  03 22  03.9650 19174.1 -14995.9 -38.0286 24341.8
 08 11 2023  03 23  03.9639 19174.3 -14995.9 -38.0283 24342.0
 08 11 2023  03 24  03.9630 19174.6 -14996.0 -38.0280 24342.2
 08 11 2023  03 25  03.9628 19175.0 -14996.0 -38.0275 24342.6
 08 11 2023  03 26  03.9630 19175.2 -14996.1 -38.0273 24342.8
 08 11 2023  03 27  03.9632 19175.6 -14996.1 -38.0267 24343.1
 08 11 2023  03 28  03.9633 19176.1 -14996.1 -38.0260 24343.5
 08 11 2023  03 29  03.9632 19176.5 -14996.1 -38.0254 24343.8
 08 11 2023  03 30  03.9634 19176.7 -14996.1 -38.0251 24343.9
 08 11 2023  03 31  03.9633 19176.8 -14996.1 -38.0249 24344.1
 08 11 2023  03 32  03.9634 19176.8 -14996.1 -38.0250 24344.0
 08 11 2023  03 33  03.9639 19177.0 -14996.1 -38.0247 24344.2
 08 11 2023  03 34  03.9651 19177.7 -14996.0 -38.0237 24344.7
 08 11 2023  03 35  03.9665 19178.5 -14996.0 -38.0223 24345.3
 08 11 2023  03 36  03.9684 19180.4 -14995.9 -38.0193 24346.8
 08 11 2023  03 37  03.9694 19181.9 -14995.8 -38.0170 24347.9
 08 11 2023  03 38  03.9694 19182.6 -14995.7 -38.0158 24348.4
 08 11 2023  03 39  03.9682 19182.2 -14995.7 -38.0164 24348.0
 08 11 2023  03 40  03.9665 19181.3 -14995.7 -38.0178 24347.4
 08 11 2023  03 41  03.9641 19181.1 -14995.8 -38.0183 24347.2
 08 11 2023  03 42  03.9606 19181.2 -14996.0 -38.0183 24347.5
 08 11 2023  03 43  03.9585 19181.5 -14996.0 -38.0181 24347.7
 08 11 2023  03 44  03.9551 19181.1 -14996.2 -38.0189 24347.5
 08 11 2023  03 45  03.9532 19180.3 -14996.4 -38.0205 24347.0
 08 11 2023  03 46  03.9520 19180.0 -14996.6 -38.0212 24346.9
 08 11 2023  03 47  03.9512 19179.9 -14996.7 -38.0216 24346.9
 08 11 2023  03 48  03.9506 19180.0 -14996.8 -38.0218 24347.0
 08 11 2023  03 49  03.9497 19180.5 -14997.0 -38.0214 24347.5
 08 11 2023  03 50  03.9471 19180.6 -14997.2 -38.0215 24347.7
 08 11 2023  03 51  03.9444 19180.4 -14997.4 -38.0221 24347.7
 08 11 2023  03 52  03.9416 19180.7 -14997.5 -38.0221 24348.0
 08 11 2023  03 53  03.9395 19179.9 -14997.7 -38.0236 24347.5
 08 11 2023  03 54  03.9367 19180.0 -14998.0 -38.0238 24347.7
 08 11 2023  03 55  03.9342 19179.9 -14998.2 -38.0244 24347.8
 08 11 2023  03 56  03.9329 19180.2 -14998.4 -38.0243 24348.1
 08 11 2023  03 57  03.9320 19180.2 -14998.5 -38.0246 24348.2
 08 11 2023  03 58  03.9308 19179.5 -14998.6 -38.0258 24347.7
 08 11 2023  03 59  03.9299 19179.8 -14998.7 -38.0256 24348.0
 08 11 2023  04 00  03.9294 19180.5 -14998.8 -38.0248 24348.6
 08 11 2023  04 01  03.9287 19181.1 -14998.9 -38.0240 24349.2
 08 11 2023  04 02  03.9272 19181.6 -14999.0 -38.0234 24349.6
 08 11 2023  04 03  03.9257 19181.5 -14999.0 -38.0236 24349.6
 08 11 2023  04 04  03.9236 19180.9 -14999.1 -38.0248 24349.1
 08 11 2023  04 05  03.9225 19180.6 -14999.2 -38.0253 24349.0
 08 11 2023  04 06  03.9218 19179.7 -14999.3 -38.0268 24348.3
 08 11 2023  04 07  03.9221 19178.6 -14999.4 -38.0286 24347.5
 08 11 2023  04 08  03.9218 19178.0 -14999.5 -38.0295 24347.1
 08 11 2023  04 09  03.9200 19177.5 -14999.5 -38.0303 24346.7
 08 11 2023  04 10  03.9188 19177.8 -14999.7 -38.0303 24347.0
 08 11 2023  04 11  03.9180 19179.5 -14999.8 -38.0280 24348.4
 08 11 2023  04 12  03.9175 19180.4 -14999.8 -38.0266 24349.1
 08 11 2023  04 13  03.9164 19180.6 -14999.8 -38.0264 24349.3
 08 11 2023  04 14  03.9155 19181.1 -14999.8 -38.0257 24349.7
 08 11 2023  04 15  03.9143 19181.0 -14999.8 -38.0259 24349.7
 08 11 2023  04 16  03.9139 19181.3 -14999.9 -38.0255 24350.0
 08 11 2023  04 17  03.9141 19181.7 -14999.9 -38.0249 24350.2
 08 11 2023  04 18  03.9135 19181.6 -14999.9 -38.0250 24350.1
 08 11 2023  04 19  03.9117 19181.1 -14999.9 -38.0259 24349.8
 08 11 2023  04 20  03.9106 19181.2 -15000.0 -38.0258 24349.9
 08 11 2023  04 21  03.9102 19181.2 -15000.0 -38.0260 24349.9
 08 11 2023  04 22  03.9103 19181.3 -15000.0 -38.0258 24350.0
 08 11 2023  04 23  03.9106 19181.8 -15000.0 -38.0250 24350.4
 08 11 2023  04 24  03.9104 19181.7 -14999.9 -38.0250 24350.3
 08 11 2023  04 25  03.9101 19181.6 -14999.9 -38.0251 24350.2
 08 11 2023  04 26  03.9102 19181.5 -14999.9 -38.0252 24350.1
 08 11 2023  04 27  03.9109 19181.7 -14999.8 -38.0248 24350.2
 08 11 2023  04 28  03.9107 19181.4 -14999.7 -38.0251 24349.9
 08 11 2023  04 29  03.9113 19181.5 -14999.6 -38.0248 24349.9
 08 11 2023  04 30  03.9112 19181.3 -14999.6 -38.0249 24349.8
 08 11 2023  04 31  03.9114 19181.7 -14999.5 -38.0243 24350.0
 08 11 2023  04 32  03.9120 19182.4 -14999.4 -38.0231 24350.5
 08 11 2023  04 33  03.9123 19182.0 -14999.3 -38.0234 24350.1
 08 11 2023  04 34  03.9127 19181.6 -14999.2 -38.0238 24349.8
 08 11 2023  04 35  03.9127 19181.0 -14999.1 -38.0246 24349.2
 08 11 2023  04 36  03.9131 19181.1 -14999.1 -38.0243 24349.3
 08 11 2023  04 37  03.9138 19181.5 -14999.0 -38.0236 24349.5
 08 11 2023  04 38  03.9143 19181.5 -14998.9 -38.0234 24349.4
 08 11 2023  04 39  03.9145 19181.1 -14998.8 -38.0238 24349.1
 08 11 2023  04 40  03.9145 19180.4 -14998.7 -38.0247 24348.5
 08 11 2023  04 41  03.9153 19180.1 -14998.7 -38.0250 24348.2
 08 11 2023  04 42  03.9158 19179.4 -14998.6 -38.0258 24347.6
 08 11 2023  04 43  03.9160 19178.4 -14998.5 -38.0271 24346.8
 08 11 2023  04 44  03.9162 19177.7 -14998.5 -38.0280 24346.2
 08 11 2023  04 45  03.9167 19177.5 -14998.4 -38.0283 24346.0
 08 11 2023  04 46  03.9174 19177.2 -14998.3 -38.0286 24345.7
 08 11 2023  04 47  03.9179 19176.8 -14998.2 -38.0289 24345.4
 08 11 2023  04 48  03.9183 19176.2 -14998.1 -38.0297 24344.8
 08 11 2023  04 49  03.9188 19175.5 -14998.1 -38.0306 24344.2
 08 11 2023  04 50  03.9192 19175.0 -14998.0 -38.0312 24343.9
 08 11 2023  04 51  03.9196 19175.1 -14998.0 -38.0310 24343.8
 08 11 2023  04 52  03.9196 19175.2 -14997.9 -38.0307 24343.9
 08 11 2023  04 53  03.9196 19175.1 -14997.9 -38.0308 24343.8
 08 11 2023  04 54  03.9198 19175.0 -14997.8 -38.0309 24343.7
 08 11 2023  04 55  03.9199 19174.5 -14997.8 -38.0314 24343.3
 08 11 2023  04 56  03.9200 19174.4 -14997.7 -38.0315 24343.2
 08 11 2023  04 57  03.9202 19174.5 -14997.7 -38.0314 24343.2
 08 11 2023  04 58  03.9208 19174.6 -14997.6 -38.0310 24343.3
 08 11 2023  04 59  03.9214 19175.5 -14997.6 -38.0297 24343.9
 08 11 2023  05 00  03.9216 19175.5 -14997.5 -38.0295 24343.8
 08 11 2023  05 01  03.9216 19175.0 -14997.4 -38.0301 24343.4
 08 11 2023  05 02  03.9214 19174.6 -14997.4 -38.0307 24343.1
 08 11 2023  05 03  03.9216 19173.8 -14997.3 -38.0317 24342.4
 08 11 2023  05 04  03.9221 19173.5 -14997.3 -38.0320 24342.2
 08 11 2023  05 05  03.9231 19173.3 -14997.2 -38.0321 24342.0
 08 11 2023  05 06  03.9244 19172.8 -14997.1 -38.0327 24341.6
 08 11 2023  05 07  03.9254 19173.0 -14997.0 -38.0322 24341.7
 08 11 2023  05 08  03.9262 19173.7 -14996.9 -38.0310 24342.1
 08 11 2023  05 09  03.9265 19174.1 -14996.8 -38.0302 24342.4
 08 11 2023  05 10  03.9269 19173.9 -14996.7 -38.0304 24342.1
 08 11 2023  05 11  03.9270 19173.1 -14996.6 -38.0314 24341.4
 08 11 2023  05 12  03.9271 19172.7 -14996.6 -38.0318 24341.1
 08 11 2023  05 13  03.9275 19172.4 -14996.5 -38.0321 24340.8
 08 11 2023  05 14  03.9276 19172.1 -14996.5 -38.0325 24340.6
 08 11 2023  05 15  03.9276 19172.2 -14996.4 -38.0324 24340.6
 08 11 2023  05 16  03.9272 19172.2 -14996.4 -38.0323 24340.6
 08 11 2023  05 17  03.9268 19172.2 -14996.4 -38.0322 24340.6
 08 11 2023  05 18  03.9267 19172.4 -14996.4 -38.0319 24340.8
 08 11 2023  05 19  03.9266 19172.9 -14996.4 -38.0312 24341.1
 08 11 2023  05 20  03.9264 19173.2 -14996.3 -38.0307 24341.3
 08 11 2023  05 21  03.9262 19173.5 -14996.3 -38.0301 24341.6
 08 11 2023  05 22  03.9257 19174.1 -14996.3 -38.0293 24342.1
 08 11 2023  05 23  03.9257 19174.5 -14996.3 -38.0288 24342.3
 08 11 2023  05 24  03.9265 19174.5 -14996.3 -38.0287 24342.3
 08 11 2023  05 25  03.9274 19174.7 -14996.2 -38.0283 24342.5
 08 11 2023  05 26  03.9282 19174.6 -14996.1 -38.0283 24342.3
 08 11 2023  05 27  03.9292 19174.6 -14996.0 -38.0282 24342.3
 08 11 2023  05 28  03.9298 19174.4 -14996.0 -38.0282 24342.1
 08 11 2023  05 29  03.9306 19174.7 -14995.9 -38.0277 24342.2
 08 11 2023  05 30  03.9312 19174.6 -14995.8 -38.0276 24342.1
 08 11 2023  05 31  03.9317 19174.9 -14995.7 -38.0270 24342.3
 08 11 2023  05 32  03.9322 19174.8 -14995.6 -38.0270 24342.2
 08 11 2023  05 33  03.9324 19174.9 -14995.5 -38.0267 24342.2
 08 11 2023  05 34  03.9321 19174.6 -14995.5 -38.0270 24342.0
 08 11 2023  05 35  03.9317 19174.7 -14995.4 -38.0269 24342.0
 08 11 2023  05 36  03.9310 19174.7 -14995.5 -38.0269 24342.0
 08 11 2023  05 37  03.9305 19174.5 -14995.5 -38.0273 24341.8
 08 11 2023  05 38  03.9299 19174.5 -14995.5 -38.0272 24341.8
 08 11 2023  05 39  03.9293 19174.4 -14995.5 -38.0274 24341.8
 08 11 2023  05 40  03.9291 19174.4 -14995.5 -38.0274 24341.8
 08 11 2023  05 41  03.9290 19174.5 -14995.5 -38.0273 24341.9
 08 11 2023  05 42  03.9290 19174.5 -14995.5 -38.0273 24341.9
 08 11 2023  05 43  03.9294 19174.7 -14995.5 -38.0270 24342.0
 08 11 2023  05 44  03.9297 19175.1 -14995.5 -38.0264 24342.3
 08 11 2023  05 45  03.9295 19175.1 -14995.4 -38.0263 24342.3
 08 11 2023  05 46  03.9297 19174.9 -14995.4 -38.0266 24342.1
 08 11 2023  05 47  03.9299 19174.9 -14995.4 -38.0265 24342.1
 08 11 2023  05 48  03.9299 19174.8 -14995.4 -38.0266 24342.0
 08 11 2023  05 49  03.9299 19175.0 -14995.4 -38.0262 24342.2
 08 11 2023  05 50  03.9295 19175.2 -14995.3 -38.0259 24342.4
 08 11 2023  05 51  03.9289 19175.3 -14995.3 -38.0257 24342.4
 08 11 2023  05 52  03.9286 19175.3 -14995.3 -38.0258 24342.4
 08 11 2023  05 53  03.9284 19175.5 -14995.4 -38.0256 24342.5
 08 11 2023  05 54  03.9280 19175.7 -14995.3 -38.0252 24342.7
 08 11 2023  05 55  03.9278 19175.8 -14995.3 -38.0251 24342.8
 08 11 2023  05 56  03.9275 19175.7 -14998.3 -38.0307 24344.5
 08 11 2023  05 57  03.9273 19175.3 -15005.7 -38.0449 24348.8
 08 11 2023  05 58  03.9270 19175.0 -15008.1 -38.0499 24350.0
 08 11 2023  05 59  03.9268 19175.0 -15003.3 -38.0409 24347.1
 08 11 2023  06 00  03.9266 19175.0 -15003.9 -38.0422 24347.4
 08 11 2023  06 01  03.9264 19174.9 -15004.5 -38.0434 24347.8
 08 11 2023  06 02  03.9262 19175.2 -15006.6 -38.0469 24349.2
 08 11 2023  06 03  03.9260 19175.5 -15007.1 -38.0473 24349.8
 08 11 2023  06 04  03.9260 19175.7 -15001.9 -38.0373 24346.8
 08 11 2023  06 05  03.9260 19175.9 -14997.1 -38.0282 24343.9
 08 11 2023  06 06  03.9256 19175.9 -14996.8 -38.0276 24343.7
 08 11 2023  06 07  03.9251 19175.8 -14998.5 -38.0309 24344.7
 08 11 2023  06 08  03.9245 19175.7 -15003.3 -38.0400 24347.6
 08 11 2023  06 09  03.9243 19175.7 -15004.2 -38.0417 24348.2
 08 11 2023  06 10  03.9242 19175.5 -15003.3 -38.0402 24347.4
 08 11 2023  06 11  03.9241 19175.4 -15004.5 -38.0427 24348.1
 08 11 2023  06 12  03.9241 19175.3 -15005.6 -38.0449 24348.7
 08 11 2023  06 13  03.9240 19175.1 -14999.4 -38.0337 24344.7
 08 11 2023  06 14  03.9242 19175.2 -14996.0 -38.0272 24342.7
 08 11 2023  06 15  03.9246 19175.3 -14995.5 -38.0262 24342.5
 08 11 2023  06 16  03.9249 19175.3 -14995.4 -38.0259 24342.5
 08 11 2023  06 17  03.9248 19175.3 -14995.3 -38.0257 24342.4
 08 11 2023  06 18  03.9247 19175.4 -14995.2 -38.0255 24342.4
 08 11 2023  06 19  03.9245 19175.2 -14995.2 -38.0257 24342.2
 08 11 2023  06 20  03.9243 19175.0 -14995.2 -38.0260 24342.1
 08 11 2023  06 21  03.9245 19174.8 -14995.2 -38.0264 24341.9
 08 11 2023  06 22  03.9246 19174.3 -14995.2 -38.0269 24341.6
 08 11 2023  06 23  03.9245 19173.9 -14995.2 -38.0275 24341.2
 08 11 2023  06 24  03.9247 19173.8 -14995.2 -38.0278 24341.1
 08 11 2023  06 25  03.9251 19173.4 -14995.2 -38.0282 24340.8
 08 11 2023  06 26  03.9255 19173.5 -14995.2 -38.0281 24340.9
 08 11 2023  06 27  03.9256 19173.1 -14995.1 -38.0286 24340.5
 08 11 2023  06 28  03.9263 19173.2 -14995.1 -38.0285 24340.6
 08 11 2023  06 29  03.9265 19173.0 -14995.1 -38.0287 24340.4
 08 11 2023  06 30  03.9271 19172.8 -14995.1 -38.0289 24340.3
 08 11 2023  06 31  03.9274 19173.4 -14995.0 -38.0280 24340.7
 08 11 2023  06 32  03.9277 19173.6 -14995.0 -38.0277 24340.9
 08 11 2023  06 33  03.9280 19173.7 -14995.1 -38.0276 24341.0
 08 11 2023  06 34  03.9288 19173.9 -14994.9 -38.0269 24341.0
 08 11 2023  06 35  03.9295 19174.0 -14994.7 -38.0265 24340.9
 08 11 2023  06 36  03.9293 19173.8 -14994.6 -38.0266 24340.8
 08 11 2023  06 37  03.9293 19173.9 -14994.6 -38.0263 24340.9
 08 11 2023  06 38  03.9297 19173.9 -14994.5 -38.0263 24340.8
 08 11 2023  06 39  03.9298 19174.3 -14994.5 -38.0257 24341.1
 08 11 2023  06 40  03.9292 19174.4 -14994.5 -38.0254 24341.2
 08 11 2023  06 41  03.9288 19174.4 -14994.5 -38.0254 24341.2
 08 11 2023  06 42  03.9289 19175.1 -14994.4 -38.0245 24341.7
 08 11 2023  06 43  03.9292 19175.8 -14994.4 -38.0233 24342.3
 08 11 2023  06 44  03.9298 19176.1 -14994.4 -38.0228 24342.4
 08 11 2023  06 45  03.9304 19175.7 -14994.3 -38.0232 24342.1
 08 11 2023  06 46  03.9307 19174.9 -14994.2 -38.0242 24341.4
 08 11 2023  06 47  03.9312 19174.3 -14994.2 -38.0251 24340.9
 08 11 2023  06 48  03.9315 19173.8 -14994.1 -38.0257 24340.5
 08 11 2023  06 49  03.9315 19173.5 -14994.1 -38.0262 24340.2
 08 11 2023  06 50  03.9314 19173.3 -14994.1 -38.0265 24340.0
 08 11 2023  06 51  03.9318 19173.4 -14994.2 -38.0263 24340.2
 08 11 2023  06 52  03.9322 19173.1 -14994.1 -38.0267 24339.9
 08 11 2023  06 53  03.9322 19173.6 -14994.2 -38.0261 24340.3
 08 11 2023  06 54  03.9316 19174.7 -14994.2 -38.0245 24341.2
 08 11 2023  06 55  03.9309 19175.0 -14994.2 -38.0240 24341.5
 08 11 2023  06 56  03.9300 19175.7 -14994.2 -38.0230 24342.0
 08 11 2023  06 57  03.9296 19177.5 -14994.2 -38.0205 24343.5
 08 11 2023  06 58  03.9292 19179.3 -14994.2 -38.0179 24344.8
 08 11 2023  06 59  03.9295 19180.6 -14994.2 -38.0160 24345.8
 08 11 2023  07 00  03.9293 19181.2 -14994.1 -38.0150 24346.3
 08 11 2023  07 01  03.9296 19181.3 -14994.1 -38.0148 24346.3
 08 11 2023  07 02  03.9316 19181.0 -14994.0 -38.0151 24346.1
 08 11 2023  07 03  03.9337 19179.8 -14993.9 -38.0166 24345.1
 08 11 2023  07 04  03.9356 19179.2 -14993.8 -38.0173 24344.5
 08 11 2023  07 05  03.9386 19179.9 -14993.7 -38.0161 24345.0
 08 11 2023  07 06  03.9407 19180.0 -14993.4 -38.0155 24344.9
 08 11 2023  07 07  03.9424 19180.1 -14993.3 -38.0151 24344.9
 08 11 2023  07 08  03.9432 19180.2 -14993.1 -38.0145 24344.9
 08 11 2023  07 09  03.9444 19180.4 -14993.0 -38.0140 24345.0
 08 11 2023  07 10  03.9456 19180.7 -14992.8 -38.0133 24345.1
 08 11 2023  07 11  03.9452 19180.1 -14992.7 -38.0140 24344.6
 08 11 2023  07 12  03.9449 19179.6 -14992.7 -38.0147 24344.2
 08 11 2023  07 13  03.9440 19179.3 -14992.8 -38.0151 24344.0
 08 11 2023  07 14  03.9451 19179.7 -14992.8 -38.0146 24344.3
 08 11 2023  07 15  03.9449 19179.0 -14992.8 -38.0157 24343.7
 08 11 2023  07 16  03.9436 19177.8 -14992.8 -38.0175 24342.8
 08 11 2023  07 17  03.9421 19177.0 -14992.9 -38.0188 24342.3
 08 11 2023  07 18  03.9410 19176.7 -14993.1 -38.0195 24342.1
 08 11 2023  07 19  03.9399 19176.6 -14993.2 -38.0199 24342.1
 08 11 2023  07 20  03.9385 19176.5 -14993.3 -38.0203 24342.0
 08 11 2023  07 21  03.9371 19176.5 -14993.4 -38.0205 24342.2
 08 11 2023  07 22  03.9361 19176.7 -14993.5 -38.0205 24342.4
 08 11 2023  07 23  03.9358 19176.9 -14993.6 -38.0204 24342.6
 08 11 2023  07 24  03.9354 19176.9 -14993.7 -38.0204 24342.7
 08 11 2023  07 25  03.9351 19176.9 -14993.8 -38.0206 24342.7
 08 11 2023  07 26  03.9350 19177.1 -14993.8 -38.0203 24342.9
 08 11 2023  07 27  03.9349 19177.4 -14993.8 -38.0199 24343.1
 08 11 2023  07 28  03.9346 19177.9 -14993.8 -38.0193 24343.5
 08 11 2023  07 29  03.9345 19178.0 -14993.8 -38.0192 24343.6
 08 11 2023  07 30  03.9347 19177.5 -14993.9 -38.0198 24343.2
 08 11 2023  07 31  03.9348 19177.0 -14993.9 -38.0206 24342.9
 08 11 2023  07 32  03.9350 19177.0 -14993.9 -38.0208 24342.8
 08 11 2023  07 33  03.9350 19176.9 -14993.9 -38.0209 24342.8
 08 11 2023  07 34  03.9352 19177.2 -14993.9 -38.0205 24343.0
 08 11 2023  07 35  03.9353 19177.5 -14993.9 -38.0200 24343.3
 08 11 2023  07 36  03.9352 19177.5 -14993.9 -38.0199 24343.3
 08 11 2023  07 37  03.9353 19177.8 -14993.9 -38.0196 24343.4
 08 11 2023  07 38  03.9362 19179.7 -14993.9 -38.0167 24345.0
 08 11 2023  07 39  03.9373 19182.4 -14993.8 -38.0127 24347.0
 08 11 2023  07 40  03.9378 19183.8 -14993.6 -38.0103 24348.0
 08 11 2023  07 41  03.9383 19183.6 -14993.5 -38.0103 24347.8
 08 11 2023  07 42  03.9386 19183.0 -14993.4 -38.0110 24347.3
 08 11 2023  07 43  03.9392 19182.4 -14993.3 -38.0118 24346.7
 08 11 2023  07 44  03.9395 19182.6 -14993.3 -38.0114 24346.9
 08 11 2023  07 45  03.9400 19183.3 -14993.2 -38.0101 24347.4
 08 11 2023  07 46  03.9397 19183.3 -14993.1 -38.0101 24347.3
 08 11 2023  07 47  03.9394 19183.2 -14993.0 -38.0101 24347.2
 08 11 2023  07 48  03.9391 19182.7 -14993.0 -38.0107 24346.8
 08 11 2023  07 49  03.9389 19182.0 -14993.0 -38.0117 24346.2
 08 11 2023  07 50  03.9384 19181.4 -14993.0 -38.0126 24345.8
 08 11 2023  07 51  03.9380 19181.1 -14993.0 -38.0131 24345.5
 08 11 2023  07 52  03.9371 19180.8 -14993.1 -38.0136 24345.4
 08 11 2023  07 53  03.9363 19181.1 -14993.2 -38.0135 24345.7
 08 11 2023  07 54  03.9360 19181.7 -14993.3 -38.0127 24346.2
 08 11 2023  07 55  03.9359 19182.4 -14993.2 -38.0116 24346.7
 08 11 2023  07 56  03.9358 19182.9 -14993.2 -38.0109 24347.1
 08 11 2023  07 57  03.9359 19182.9 -14993.2 -38.0108 24347.1
 08 11 2023  07 58  03.9363 19182.1 -14993.2 -38.0120 24346.4
 08 11 2023  07 59  03.9364 19181.4 -14993.2 -38.0131 24345.9
 08 11 2023  08 00  03.9364 19181.7 -14993.3 -38.0127 24346.2
 08 11 2023  08 01  03.9365 19182.7 -14993.3 -38.0113 24346.9
 08 11 2023  08 02  03.9362 19182.8 -14993.2 -38.0111 24347.0
 08 11 2023  08 03  03.9360 19182.9 -14993.2 -38.0109 24347.1
 08 11 2023  08 04  03.9362 19183.6 -14993.3 -38.0098 24347.7
 08 11 2023  08 05  03.9365 19185.2 -14993.3 -38.0075 24348.9
 08 11 2023  08 06  03.9368 19185.4 -14993.4 -38.0074 24349.2
 08 11 2023  08 07  03.9373 19183.5 -14993.3 -38.0101 24347.6
 08 11 2023  08 08  03.9372 19182.8 -14993.3 -38.0112 24347.1
 08 11 2023  08 09  03.9375 19182.5 -14993.3 -38.0117 24346.8
 08 11 2023  08 10  03.9380 19182.0 -14993.3 -38.0123 24346.5
 08 11 2023  08 11  03.9383 19181.5 -14993.4 -38.0132 24346.1
 08 11 2023  08 12  03.9386 19181.4 -14993.4 -38.0133 24346.0
 08 11 2023  08 13  03.9387 19181.2 -14993.4 -38.0136 24345.8
 08 11 2023  08 14  03.9382 19181.3 -14993.4 -38.0135 24345.9
 08 11 2023  08 15  03.9382 19182.1 -14993.4 -38.0123 24346.6
 08 11 2023  08 16  03.9386 19183.8 -14993.5 -38.0100 24347.9
 08 11 2023  08 17  03.9400 19185.4 -14993.4 -38.0075 24349.2
 08 11 2023  08 18  03.9413 19187.6 -14993.3 -38.0043 24350.8
 08 11 2023  08 19  03.9424 19277.6 -14993.3 -37.8741 24421.9
 08 11 2023  08 20  03.9419 19263.9 -14993.3 -37.8940 24410.9
 08 11 2023  08 21  03.9419 19259.1 -14993.3 -37.9008 24407.2
 08 11 2023  08 22  03.9451 19232.3 -14993.2 -37.9394 24386.0
 08 11 2023  08 23  03.9473 19209.8 -14993.0 -37.9715 24368.2
 08 11 2023  08 24  03.9473 19185.3 -14992.9 -38.0069 24348.8
 08 11 2023  08 25  03.9467 19183.9 -14992.7 -38.0084 24347.6
 08 11 2023  08 26  03.9475 19183.9 -14992.7 -38.0085 24347.5
 08 11 2023  08 27  03.9493 19184.8 -14992.8 -38.0074 24348.3
 08 11 2023  08 28  03.9506 19185.5 -14993.3 -38.0071 24349.2
 08 11 2023  08 29  03.9512 19185.9 -14993.1 -38.0063 24349.3
 08 11 2023  08 30  03.9522 19186.8 -14992.6 -38.0040 24349.7
 08 11 2023  08 31  03.9535 19187.4 -14992.6 -38.0031 24350.2
 08 11 2023  08 32  03.9534 19188.1 -14993.7 -38.0042 24351.5
 08 11 2023  08 33  03.9552 19189.8 -14995.1 -38.0044 24353.7
 08 11 2023  08 34  03.9568 19189.4 -14994.9 -38.0045 24353.2
 08 11 2023  08 35  03.9559 19187.6 -14997.6 -38.0122 24353.5
 08 11 2023  08 36  03.9552 19186.7 -14993.3 -38.0055 24350.1
 08 11 2023  08 37  03.9548 19186.7 -14992.9 -38.0048 24349.9
 08 11 2023  08 38  03.9539 19186.1 -14993.4 -38.0065 24349.7
 08 11 2023  08 39  03.9532 19185.8 -14993.3 -38.0069 24349.4
 08 11 2023  08 40  03.9530 19185.3 -14998.5 -38.0172 24352.2
 08 11 2023  08 41  03.9518 19184.7 -14995.0 -38.0116 24349.6
 08 11 2023  08 42  03.9513 19184.6 -14993.8 -38.0094 24348.8
 08 11 2023  08 43  03.9513 19184.8 -14993.5 -38.0085 24348.7
 08 11 2023  08 44  03.9518 19184.9 -14993.5 -38.0084 24348.8
 08 11 2023  08 45  03.9525 19184.8 -14993.6 -38.0088 24348.8
 08 11 2023  08 46  03.9521 19184.6 -14993.7 -38.0092 24348.7
 08 11 2023  08 47  03.9520 19185.1 -14993.8 -38.0088 24349.2
 08 11 2023  08 48  03.9527 19185.1 -14994.0 -38.0091 24349.2
 08 11 2023  08 49  03.9531 19185.0 -14994.1 -38.0094 24349.3
 08 11 2023  08 50  03.9533 19185.1 -14994.2 -38.0094 24349.4
 08 11 2023  08 51  03.9537 19185.2 -14994.3 -38.0095 24349.5
 08 11 2023  08 52  03.9539 19185.1 -14994.4 -38.0098 24349.5
 08 11 2023  08 53  03.9551 19185.3 -14994.4 -38.0096 24349.7
 08 11 2023  08 54  03.9561 19184.9 -14994.4 -38.0103 24349.4
 08 11 2023  08 55  03.9558 19183.8 -14994.5 -38.0119 24348.6
 08 11 2023  08 56  03.9543 19183.2 -14994.7 -38.0132 24348.2
 08 11 2023  08 57  03.9538 19183.2 -14994.9 -38.0135 24348.4
 08 11 2023  08 58  03.9534 19183.4 -14995.1 -38.0137 24348.6
 08 11 2023  08 59  03.9532 19183.3 -14995.2 -38.0140 24348.6
 08 11 2023  09 00  03.9523 19183.3 -14995.4 -38.0143 24348.8
 08 11 2023  09 01  03.9522 19183.4 -14995.6 -38.0145 24349.0
 08 11 2023  09 02  03.9519 19183.2 -14995.8 -38.0151 24348.9
 08 11 2023  09 03  03.9522 19182.7 -14996.0 -38.0162 24348.6
 08 11 2023  09 04  03.9508 19182.1 -14996.1 -38.0173 24348.2
 08 11 2023  09 05  03.9502 19182.0 -14996.1 -38.0175 24348.2
 08 11 2023  09 06  03.9487 19182.1 -14996.1 -38.0173 24348.3
 08 11 2023  09 07  03.9474 19182.4 -14996.2 -38.0171 24348.5
 08 11 2023  09 08  03.9469 19182.3 -14996.3 -38.0174 24348.5
 08 11 2023  09 09  03.9463 19181.7 -14996.3 -38.0183 24348.1
 08 11 2023  09 10  03.9453 19180.9 -14996.4 -38.0196 24347.4
 08 11 2023  09 11  03.9443 19180.5 -14996.5 -38.0204 24347.2
 08 11 2023  09 12  03.9445 19180.3 -14996.5 -38.0205 24347.1
 08 11 2023  09 13  03.9433 19180.5 -14996.4 -38.0203 24347.1
 08 11 2023  09 14  03.9436 19180.8 -14996.3 -38.0197 24347.3
 08 11 2023  09 15  03.9431 19180.1 -14996.2 -38.0205 24346.7
 08 11 2023  09 16  03.9419 19179.5 -14996.2 -38.0213 24346.3
 08 11 2023  09 17  03.9415 19179.6 -14996.2 -38.0212 24346.3
 08 11 2023  09 18  03.9422 19179.9 -14996.1 -38.0206 24346.5
 08 11 2023  09 19  03.9433 19179.9 -14996.0 -38.0202 24346.4
 08 11 2023  09 20  03.9431 19179.5 -14995.8 -38.0206 24346.0
 08 11 2023  09 21  03.9434 19179.8 -14995.8 -38.0200 24346.2
 08 11 2023  09 22  03.9445 19180.1 -14995.7 -38.0195 24346.4
 08 11 2023  09 23  03.9457 19180.1 -14995.6 -38.0193 24346.3
 08 11 2023  09 24  03.9469 19180.3 -14995.4 -38.0186 24346.4
 08 11 2023  09 25  03.9483 19180.8 -14995.2 -38.0175 24346.6
 08 11 2023  09 26  03.9482 19180.8 -14995.0 -38.0172 24346.5
 08 11 2023  09 27  03.9494 19181.3 -14994.9 -38.0162 24346.9
 08 11 2023  09 28  03.9506 19182.2 -14994.7 -38.0145 24347.4
 08 11 2023  09 29  03.9529 19183.1 -14994.4 -38.0127 24348.0
 08 11 2023  09 30  03.9550 19184.1 -14994.1 -38.0107 24348.5
 08 11 2023  09 31  03.9552 19183.7 -14993.9 -38.0109 24348.1
 08 11 2023  09 32  03.9554 19183.8 -14993.7 -38.0105 24348.1
 08 11 2023  09 33  03.9561 19184.2 -14993.6 -38.0096 24348.4
 08 11 2023  09 34  03.9570 19184.7 -14993.5 -38.0088 24348.7
 08 11 2023  09 35  03.9581 19185.5 -14993.4 -38.0074 24349.2
 08 11 2023  09 36  03.9592 19186.5 -14993.2 -38.0056 24349.9
 08 11 2023  09 37  03.9621 19188.0 -14993.0 -38.0030 24351.0
 08 11 2023  09 38  03.9634 19188.2 -14992.8 -38.0024 24350.9
 08 11 2023  09 39  03.9621 19187.7 -14992.8 -38.0030 24350.6
 08 11 2023  09 40  03.9630 19188.6 -14992.7 -38.0017 24351.2
 08 11 2023  09 41  03.9628 19188.8 -14992.6 -38.0012 24351.3
 08 11 2023  09 42  03.9636 19188.9 -14992.6 -38.0010 24351.4
 08 11 2023  09 43  03.9652 19189.3 -14992.5 -38.0002 24351.6
 08 11 2023  09 44  03.9649 19189.6 -14992.4 -37.9995 24351.9
 08 11 2023  09 45  03.9661 19190.1 -14992.3 -37.9987 24352.2
 08 11 2023  09 46  03.9668 19190.8 -14992.2 -37.9974 24352.7
 08 11 2023  09 47  03.9673 19191.9 -14992.1 -37.9957 24353.5
 08 11 2023  09 48  03.9677 19192.5 -14992.0 -37.9946 24353.9
 08 11 2023  09 49  03.9668 19192.7 -14991.9 -37.9941 24354.0
 08 11 2023  09 50  03.9647 19192.1 -14991.9 -37.9950 24353.5
 08 11 2023  09 51  03.9643 19191.8 -14992.0 -37.9956 24353.4
 08 11 2023  09 52  03.9675 19192.4 -14992.0 -37.9948 24353.8
 08 11 2023  09 53  03.9687 19192.6 -14991.9 -37.9944 24353.9
 08 11 2023  09 54  03.9672 19191.9 -14991.9 -37.9954 24353.4
 08 11 2023  09 55  03.9664 19192.7 -14991.9 -37.9943 24354.0
 08 11 2023  09 56  03.9675 19193.2 -14991.8 -37.9933 24354.4
 08 11 2023  09 57  03.9692 19193.1 -14991.8 -37.9935 24354.3
 08 11 2023  09 58  03.9690 19192.6 -14991.8 -37.9942 24353.9
 08 11 2023  09 59  03.9684 19192.6 -14991.9 -37.9943 24353.9
 08 11 2023  10 00  03.9682 19192.8 -14992.0 -37.9943 24354.1
 08 11 2023  10 01  03.9677 19192.8 -14992.1 -37.9944 24354.2
 08 11 2023  10 02  03.9689 19193.1 -14992.2 -37.9942 24354.5
 08 11 2023  10 03  03.9694 19193.1 -14992.2 -37.9941 24354.5
 08 11 2023  10 04  03.9698 19192.9 -14992.2 -37.9945 24354.4
 08 11 2023  10 05  03.9679 19192.9 -14992.3 -37.9947 24354.3
 08 11 2023  10 06  03.9669 19192.8 -14992.3 -37.9949 24354.3
 08 11 2023  10 07  03.9665 19192.4 -14992.5 -37.9958 24354.1
 08 11 2023  10 08  03.9682 19192.4 -14992.6 -37.9959 24354.2
 08 11 2023  10 09  03.9704 19192.9 -14992.6 -37.9952 24354.6
 08 11 2023  10 10  03.9721 19193.4 -14992.6 -37.9944 24355.0
 08 11 2023  10 11  03.9731 19193.4 -14992.6 -37.9944 24354.9
 08 11 2023  10 12  03.9731 19193.3 -14992.5 -37.9946 24354.8
 08 11 2023  10 13  03.9712 19192.5 -14992.6 -37.9958 24354.3
 08 11 2023  10 14  03.9690 19192.4 -14992.8 -37.9963 24354.3
 08 11 2023  10 15  03.9672 19193.0 -14993.0 -37.9958 24354.9
 08 11 2023  10 16  03.9678 19193.2 -14993.2 -37.9958 24355.2
 08 11 2023  10 17  03.9686 19193.3 -14993.3 -37.9959 24355.3
 08 11 2023  10 18  03.9687 19193.5 -14993.3 -37.9957 24355.5
 08 11 2023  10 19  03.9685 19193.3 -14993.4 -37.9961 24355.4
 08 11 2023  10 20  03.9685 19193.2 -14993.5 -37.9965 24355.4
 08 11 2023  10 21  03.9688 19193.7 -14993.7 -37.9961 24355.9
 08 11 2023  10 22  03.9690 19194.4 -14993.7 -37.9951 24356.4
 08 11 2023  10 23  03.9692 19194.8 -14993.8 -37.9948 24356.8
 08 11 2023  10 24  03.9690 19195.1 -14993.9 -37.9944 24357.1
 08 11 2023  10 25  03.9681 19195.4 -14994.0 -37.9942 24357.4
 08 11 2023  10 26  03.9656 19195.1 -14994.2 -37.9949 24357.3
 08 11 2023  10 27  03.9640 19195.0 -14994.4 -37.9956 24357.3
 08 11 2023  10 28  03.9631 19195.4 -14994.6 -37.9954 24357.8
 08 11 2023  10 29  03.9634 19197.8 -14992.7 -37.9883 24358.5
 08 11 2023  10 30  03.9621 19195.2 -14994.6 -37.9956 24357.6
 08 11 2023  10 31  03.9620 19195.0 -14994.7 -37.9962 24357.5
 08 11 2023  10 32  03.9621 19195.3 -14994.9 -37.9960 24357.9
 08 11 2023  10 33  03.9620 19195.9 -14995.0 -37.9955 24358.4
 08 11 2023  10 34  03.9614 19195.5 -14995.2 -37.9961 24358.2
 08 11 2023  10 35  03.9611 19195.5 -14995.2 -37.9963 24358.3
 08 11 2023  10 36  03.9611 19195.6 -14995.4 -37.9964 24358.4
 08 11 2023  10 37  03.9612 19196.0 -14995.6 -37.9962 24358.8
 08 11 2023  10 38  03.9601 19195.8 -14995.7 -37.9967 24358.8
 08 11 2023  10 39  03.9592 19195.8 -14995.9 -37.9972 24358.9
 08 11 2023  10 40  03.9595 19196.0 -14996.1 -37.9972 24359.1
 08 11 2023  10 41  03.9602 19195.9 -14996.2 -37.9974 24359.2
 08 11 2023  10 42  03.9615 19196.2 -14996.2 -37.9971 24359.5
 08 11 2023  10 43  03.9612 19195.4 -14996.3 -37.9984 24358.8
 08 11 2023  10 44  03.9605 19194.5 -14996.4 -38.0000 24358.2
 08 11 2023  10 45  03.9602 19195.0 -14996.6 -37.9996 24358.7
 08 11 2023  10 46  03.9605 19195.3 -14996.7 -37.9994 24359.0
 08 11 2023  10 47  03.9598 19195.7 -14996.8 -37.9989 24359.4
 08 11 2023  10 48  03.9588 19196.4 -14996.9 -37.9981 24360.0
 08 11 2023  10 49  03.9567 19196.6 -14997.0 -37.9981 24360.2
 08 11 2023  10 50  03.9554 19196.9 -14997.3 -37.9982 24360.7
 08 11 2023  10 51  03.9539 19196.3 -14997.7 -37.9998 24360.4
 08 11 2023  10 52  03.9524 19196.1 -14997.9 -38.0005 24360.4
 08 11 2023  10 53  03.9523 19196.5 -14998.2 -38.0003 24360.8
 08 11 2023  10 54  03.9528 19196.8 -14998.3 -38.0002 24361.2
 08 11 2023  10 55  03.9533 19196.8 -14998.5 -38.0005 24361.3
 08 11 2023  10 56  03.9524 19196.6 -14998.6 -38.0010 24361.2
 08 11 2023  10 57  03.9498 19196.3 -14998.8 -38.0018 24361.1
 08 11 2023  10 58  03.9475 19196.4 -14999.0 -38.0021 24361.3
 08 11 2023  10 59  03.9456 19196.4 -14999.2 -38.0024 24361.5
 08 11 2023  11 00  03.9437 19197.3 -14999.5 -38.0017 24362.3
 08 11 2023  11 01  03.9416 19196.8 -14999.8 -38.0029 24362.0
 08 11 2023  11 02  03.9401 19196.0 -15000.0 -38.0044 24361.6
 08 11 2023  11 03  03.9406 19195.5 -15000.3 -38.0058 24361.4
 08 11 2023  11 04  03.9405 19195.8 -15000.4 -38.0056 24361.7
 08 11 2023  11 05  03.9395 19196.8 -15000.4 -38.0041 24362.5
 08 11 2023  11 06  03.9390 19198.0 -15000.5 -38.0024 24363.4
 08 11 2023  11 07  03.9372 19198.0 -15000.6 -38.0026 24363.5
 08 11 2023  11 08  03.9358 19198.0 -15000.7 -38.0028 24363.5
 08 11 2023  11 09  03.9358 19198.1 -15000.8 -38.0028 24363.7
 08 11 2023  11 10  03.9365 19198.5 -15000.9 -38.0025 24364.1
 08 11 2023  11 11  03.9370 19198.4 -15000.9 -38.0027 24364.0
 08 11 2023  11 12  03.9365 19198.3 -15001.0 -38.0029 24364.0
 08 11 2023  11 13  03.9362 19198.0 -15001.0 -38.0033 24363.8
 08 11 2023  11 14  03.9361 19198.6 -15001.1 -38.0026 24364.3
 08 11 2023  11 15  03.9352 19198.9 -15001.1 -38.0023 24364.6
 08 11 2023  11 16  03.9338 19198.9 -15001.2 -38.0025 24364.6
 08 11 2023  11 17  03.9322 19198.8 -15001.3 -38.0029 24364.5
 08 11 2023  11 18  03.9308 19198.6 -15001.4 -38.0034 24364.5
 08 11 2023  11 19  03.9302 19198.9 -15001.5 -38.0030 24364.8
 08 11 2023  11 20  03.9283 19199.3 -15001.4 -38.0023 24365.0
 08 11 2023  11 21  03.9265 19198.9 -15001.3 -38.0027 24364.7
 08 11 2023  11 22  03.9271 19198.5 -15001.5 -38.0036 24364.5
 08 11 2023  11 23  03.9266 19198.2 -15001.6 -38.0042 24364.3
 08 11 2023  11 24  03.9259 19198.9 -15001.7 -38.0034 24364.9
 08 11 2023  11 25  03.9235 19198.8 -15001.7 -38.0035 24364.9
 08 11 2023  11 26  03.9225 19198.7 -15001.8 -38.0039 24364.9
 08 11 2023  11 27  03.9216 19198.8 -15002.0 -38.0040 24365.0
 08 11 2023  11 28  03.9205 19198.6 -15002.1 -38.0045 24364.9
 08 11 2023  11 29  03.9208 19198.7 -15002.1 -38.0044 24365.0
 08 11 2023  11 30  03.9239 19201.8 -14999.3 -37.9946 24365.7
 08 11 2023  11 31  03.9211 19196.8 -15001.9 -38.0068 24363.4
 08 11 2023  11 32  03.9204 19197.6 -15002.8 -38.0072 24364.5
 08 11 2023  11 33  03.9189 19197.3 -15002.8 -38.0079 24364.3
 08 11 2023  11 34  03.9183 19197.1 -15003.0 -38.0084 24364.3
 08 11 2023  11 35  03.9186 19197.4 -15003.0 -38.0081 24364.5
 08 11 2023  11 36  03.9179 19197.4 -15003.1 -38.0083 24364.6
 08 11 2023  11 37  03.9175 19197.5 -15003.2 -38.0082 24364.7
 08 11 2023  11 38  03.9164 19197.3 -15003.3 -38.0087 24364.6
 08 11 2023  11 39  03.9153 19197.0 -15003.4 -38.0094 24364.5
 08 11 2023  11 40  03.9144 19197.0 -15003.5 -38.0095 24364.5
 08 11 2023  11 41  03.9130 19196.9 -15003.6 -38.0098 24364.5
 08 11 2023  11 42  03.9117 19196.6 -15003.7 -38.0104 24364.4
 08 11 2023  11 43  03.9114 19196.8 -15003.8 -38.0103 24364.5
 08 11 2023  11 44  03.9119 19197.2 -15003.8 -38.0098 24364.9
 08 11 2023  11 45  03.9120 19197.2 -15003.8 -38.0098 24364.9
 08 11 2023  11 46  03.9119 19197.7 -15003.8 -38.0091 24365.2
 08 11 2023  11 47  03.9114 19197.6 -15003.8 -38.0091 24365.1
 08 11 2023  11 48  03.9106 19197.4 -15003.7 -38.0094 24365.0
 08 11 2023  11 49  03.9091 19197.2 -15003.8 -38.0096 24364.8
 08 11 2023  11 50  03.9096 19197.4 -15003.8 -38.0094 24365.0
 08 11 2023  11 51  03.9088 19197.6 -15003.7 -38.0091 24365.1
 08 11 2023  11 52  03.9082 19196.7 -15003.7 -38.0104 24364.4
 08 11 2023  11 53  03.9071 19197.5 -15003.8 -38.0092 24365.1
 08 11 2023  11 54  03.9074 19198.4 -15003.7 -38.0078 24365.8
 08 11 2023  11 55  03.9067 19197.7 -15003.7 -38.0088 24365.2
 08 11 2023  11 56  03.9041 19196.1 -15003.7 -38.0112 24364.0
 08 11 2023  11 57  03.9012 19195.2 -15003.9 -38.0128 24363.4
 08 11 2023  11 58  03.8990 19195.1 -15004.1 -38.0134 24363.4
 08 11 2023  11 59  03.8994 19195.8 -15004.2 -38.0125 24364.0
 08 11 2023  12 00  03.9004 19196.8 -15004.1 -38.0109 24364.7
 08 11 2023  12 01  03.9032 19197.3 -15003.9 -38.0098 24365.0
 08 11 2023  12 02  03.9050 19197.3 -15003.7 -38.0094 24364.9
 08 11 2023  12 03  03.9051 19196.9 -15003.6 -38.0098 24364.5
 08 11 2023  12 04  03.9003 19196.4 -15003.5 -38.0103 24364.1
 08 11 2023  12 05  03.8965 19196.3 -15003.5 -38.0106 24364.0
 08 11 2023  12 06  03.8986 19194.8 -15003.6 -38.0128 24362.9
 08 11 2023  12 07  03.9008 19194.8 -15003.6 -38.0128 24362.8
 08 11 2023  12 08  03.8984 19195.9 -15003.5 -38.0111 24363.6
 08 11 2023  12 09  03.8965 19196.8 -15003.3 -38.0095 24364.2
 08 11 2023  12 10  03.8964 19197.2 -15003.1 -38.0084 24364.5
 08 11 2023  12 11  03.8976 19197.2 -15002.9 -38.0081 24364.3
 08 11 2023  12 12  03.8981 19196.6 -15002.8 -38.0088 24363.7
 08 11 2023  12 13  03.8986 19195.8 -15002.7 -38.0097 24363.1
 08 11 2023  12 14  03.8981 19194.9 -15002.5 -38.0107 24362.3
 08 11 2023  12 15  03.8980 19194.6 -15002.5 -38.0111 24362.0
 08 11 2023  12 16  03.8979 19193.9 -15002.4 -38.0120 24361.5
 08 11 2023  12 17  03.8977 19193.2 -15002.4 -38.0130 24360.9
 08 11 2023  12 18  03.8975 19193.0 -15002.4 -38.0133 24360.7
 08 11 2023  12 19  03.8973 19193.2 -15002.3 -38.0129 24360.8
 08 11 2023  12 20  03.8969 19192.9 -15002.3 -38.0133 24360.6
 08 11 2023  12 21  03.8963 19192.6 -15002.3 -38.0137 24360.4
 08 11 2023  12 22  03.8951 19192.6 -15002.3 -38.0136 24360.3
 08 11 2023  12 23  03.8951 19191.9 -15002.2 -38.0144 24359.7
 08 11 2023  12 24  03.8960 19191.2 -15002.2 -38.0154 24359.1
 08 11 2023  12 25  03.8955 19190.9 -15002.2 -38.0158 24358.9
 08 11 2023  12 26  03.8950 19190.9 -15002.1 -38.0157 24358.9
 08 11 2023  12 27  03.8951 19191.0 -15002.1 -38.0155 24358.9
 08 11 2023  12 28  03.8952 19191.3 -15001.9 -38.0149 24359.0
 08 11 2023  12 29  03.8952 19191.8 -15001.8 -38.0138 24359.3
 08 11 2023  12 30  03.8945 19192.0 -15001.7 -38.0133 24359.5
 08 11 2023  12 31  03.8936 19191.6 -15001.5 -38.0136 24359.1
 08 11 2023  12 32  03.8929 19190.9 -15001.4 -38.0145 24358.5
 08 11 2023  12 33  03.8926 19190.5 -15001.4 -38.0150 24358.1
 08 11 2023  12 34  03.8925 19190.7 -15001.3 -38.0146 24358.2
 08 11 2023  12 35  03.8923 19190.8 -15001.2 -38.0142 24358.2
 08 11 2023  12 36  03.8922 19190.8 -15001.1 -38.0141 24358.1
 08 11 2023  12 37  03.8916 19190.5 -15001.0 -38.0142 24357.9
 08 11 2023  12 38  03.8910 19190.4 -15000.9 -38.0142 24357.7
 08 11 2023  12 39  03.8909 19190.2 -15000.8 -38.0143 24357.5
 08 11 2023  12 40  03.8910 19189.9 -15000.7 -38.0146 24357.2
 08 11 2023  12 41  03.8910 19189.6 -15000.6 -38.0148 24357.0
 08 11 2023  12 42  03.8909 19190.0 -15000.5 -38.0140 24357.1
 08 11 2023  12 43  03.8908 19190.1 -15000.3 -38.0136 24357.1
 08 11 2023  12 44  03.8907 19190.0 -15000.2 -38.0135 24357.0
 08 11 2023  12 45  03.8907 19190.0 -15000.1 -38.0133 24356.9
 08 11 2023  12 46  03.8903 19190.2 -15000.0 -38.0128 24357.0
 08 11 2023  12 47  03.8899 19190.3 -14999.8 -38.0123 24357.0
 08 11 2023  12 48  03.8896 19190.1 -14999.6 -38.0123 24356.7
 08 11 2023  12 49  03.8898 19189.8 -14999.5 -38.0126 24356.4
 08 11 2023  12 50  03.8895 19189.7 -14999.4 -38.0125 24356.3
 08 11 2023  12 51  03.8889 19189.6 -14999.3 -38.0125 24356.1
 08 11 2023  12 52  03.8883 19189.3 -14999.2 -38.0127 24355.8
 08 11 2023  12 53  03.8884 19189.3 -14999.0 -38.0124 24355.7
 08 11 2023  12 54  03.8889 19189.1 -14998.9 -38.0125 24355.4
 08 11 2023  12 55  03.8890 19189.0 -14998.8 -38.0122 24355.3
 08 11 2023  12 56  03.8889 19188.8 -14998.6 -38.0122 24355.1
 08 11 2023  12 57  03.8889 19188.6 -14998.5 -38.0123 24354.8
 08 11 2023  12 58  03.8887 19188.3 -14998.3 -38.0125 24354.4
 08 11 2023  12 59  03.8886 19187.8 -14998.2 -38.0129 24354.0
 08 11 2023  13 00  03.8887 19188.0 -14998.0 -38.0124 24354.0
 08 11 2023  13 01  03.8889 19188.4 -14997.8 -38.0114 24354.2
 08 11 2023  13 02  03.8889 19188.6 -14997.6 -38.0107 24354.3
 08 11 2023  13 03  03.8885 19188.5 -14997.4 -38.0104 24354.1
 08 11 2023  13 04  03.8880 19188.0 -14997.2 -38.0109 24353.6
 08 11 2023  13 05  03.8874 19187.5 -14997.1 -38.0114 24353.1
 08 11 2023  13 06  03.8871 19187.5 -14997.0 -38.0112 24353.0
 08 11 2023  13 07  03.8873 19187.1 -14996.8 -38.0114 24352.6
 08 11 2023  13 08  03.8877 19187.0 -14996.7 -38.0113 24352.5
 08 11 2023  13 09  03.8877 19187.2 -14996.6 -38.0109 24352.5
 08 11 2023  13 10  03.8880 19187.2 -14996.4 -38.0104 24352.4
 08 11 2023  13 11  03.8883 19187.1 -14996.2 -38.0103 24352.2
 08 11 2023  13 12  03.8882 19187.0 -14996.0 -38.0102 24352.0
 08 11 2023  13 13  03.8880 19186.5 -14995.9 -38.0105 24351.6
 08 11 2023  13 14  03.8875 19186.3 -14995.7 -38.0105 24351.3
 08 11 2023  13 15  03.8872 19186.3 -14995.6 -38.0103 24351.2
 08 11 2023  13 16  03.8875 19186.1 -14995.4 -38.0104 24350.9
 08 11 2023  13 17  03.8875 19185.8 -14995.3 -38.0105 24350.6
 08 11 2023  13 18  03.8875 19185.5 -14995.2 -38.0107 24350.3
 08 11 2023  13 19  03.8874 19185.3 -14995.1 -38.0108 24350.1
 08 11 2023  13 20  03.8875 19185.2 -14994.9 -38.0106 24350.0
 08 11 2023  13 21  03.8878 19185.4 -14994.7 -38.0100 24350.0
 08 11 2023  13 22  03.8879 19185.6 -14994.5 -38.0094 24350.0
 08 11 2023  13 23  03.8880 19185.4 -14994.3 -38.0093 24349.7
 08 11 2023  13 24  03.8884 19185.4 -14994.2 -38.0089 24349.6
 08 11 2023  13 25  03.8886 19185.4 -14994.0 -38.0086 24349.5
 08 11 2023  13 26  03.8884 19184.9 -14993.8 -38.0091 24349.0
 08 11 2023  13 27  03.8885 19184.4 -14993.7 -38.0095 24348.6
 08 11 2023  13 28  03.8886 19184.2 -14993.6 -38.0096 24348.4
 08 11 2023  13 29  03.8888 19184.5 -14993.4 -38.0090 24348.4
 08 11 2023  13 30  03.8887 19184.7 -14993.3 -38.0084 24348.5
 08 11 2023  13 31  03.8891 19185.1 -14993.1 -38.0074 24348.7
 08 11 2023  13 32  03.8893 19184.8 -14992.8 -38.0074 24348.4
 08 11 2023  13 33  03.8891 19184.6 -14992.7 -38.0074 24348.1
 08 11 2023  13 34  03.8894 19184.7 -14992.5 -38.0069 24348.1
 08 11 2023  13 35  03.8893 19184.8 -14992.4 -38.0065 24348.1
 08 11 2023  13 36  03.8894 19185.3 -14992.1 -38.0054 24348.3
 08 11 2023  13 37  03.8897 19185.4 -14991.9 -38.0048 24348.2
 08 11 2023  13 38  03.8902 19185.8 -14991.6 -38.0036 24348.4
 08 11 2023  13 39  03.8906 19185.1 -14991.4 -38.0042 24347.7
 08 11 2023  13 40  03.8914 19186.0 -14991.2 -38.0025 24348.3
 08 11 2023  13 41  03.8918 19185.8 -14990.8 -38.0022 24347.9
 08 11 2023  13 42  03.8916 19185.3 -14990.6 -38.0025 24347.4
 08 11 2023  13 43  03.8917 19184.5 -14990.4 -38.0033 24346.6
 08 11 2023  13 44  03.8918 19183.4 -14990.3 -38.0046 24345.7
 08 11 2023  13 45  03.8921 19183.0 -14990.2 -38.0051 24345.4
 08 11 2023  13 46  03.8929 19183.8 -14990.0 -38.0035 24345.8
 08 11 2023  13 47  03.8930 19183.6 -14989.7 -38.0033 24345.5
 08 11 2023  13 48  03.8930 19183.2 -14989.5 -38.0036 24345.1
 08 11 2023  13 49  03.8936 19183.2 -14989.3 -38.0032 24344.9
 08 11 2023  13 50  03.8944 19183.2 -14989.1 -38.0029 24344.8
 08 11 2023  13 51  03.8952 19183.5 -14988.9 -38.0018 24344.9
 08 11 2023  13 52  03.8956 19183.8 -14988.6 -38.0009 24344.9
 08 11 2023  13 53  03.8959 19183.2 -14988.3 -38.0013 24344.3
 08 11 2023  13 54  03.8963 19183.2 -14988.1 -38.0010 24344.1
 08 11 2023  13 55  03.8969 19183.2 -14987.9 -38.0005 24344.0
 08 11 2023  13 56  03.8972 19182.7 -14987.6 -38.0008 24343.5
 08 11 2023  13 57  03.8976 19182.8 -14987.3 -38.0001 24343.4
 08 11 2023  13 58  03.8982 19182.3 -14987.1 -38.0003 24342.8
 08 11 2023  13 59  03.8986 19182.1 -14986.8 -38.0000 24342.5
 08 11 2023  14 00  03.8988 19182.1 -14986.6 -37.9997 24342.3
 08 11 2023  14 01  03.8992 19182.4 -14986.3 -37.9988 24342.4
 08 11 2023  14 02  03.9001 19182.4 -14986.1 -37.9983 24342.2
 08 11 2023  14 03  03.9003 19182.2 -14985.8 -37.9981 24342.0
 08 11 2023  14 04  03.9007 19182.5 -14985.6 -37.9972 24342.1
 08 11 2023  14 05  03.9011 19183.0 -14985.3 -37.9960 24342.3
 08 11 2023  14 06  03.9015 19183.2 -14985.0 -37.9952 24342.3
 08 11 2023  14 07  03.9010 19182.9 -14984.7 -37.9951 24341.8
 08 11 2023  14 08  03.9003 19183.3 -14984.5 -37.9941 24342.0
 08 11 2023  14 09  03.9013 19183.3 -14984.2 -37.9936 24341.8
 08 11 2023  14 10  03.9015 19182.9 -14983.9 -37.9935 24341.3
 08 11 2023  14 11  03.9015 19182.4 -14983.6 -37.9938 24340.8
 08 11 2023  14 12  03.9017 19182.0 -14983.5 -37.9941 24340.3
 08 11 2023  14 13  03.9018 19181.6 -14983.3 -37.9944 24339.9
 08 11 2023  14 14  03.9019 19181.4 -14983.1 -37.9943 24339.6
 08 11 2023  14 15  03.9023 19181.4 -14982.9 -37.9938 24339.5
 08 11 2023  14 16  03.9031 19181.5 -14982.7 -37.9933 24339.5
 08 11 2023  14 17  03.9041 19181.5 -14982.4 -37.9928 24339.3
 08 11 2023  14 18  03.9045 19181.2 -14982.1 -37.9928 24338.9
 08 11 2023  14 19  03.9043 19180.6 -14981.9 -37.9931 24338.3
 08 11 2023  14 20  03.9047 19180.2 -14981.8 -37.9936 24337.9
 08 11 2023  14 21  03.9056 19180.1 -14981.6 -37.9934 24337.7
 08 11 2023  14 22  03.9063 19180.5 -14981.3 -37.9923 24337.8
 08 11 2023  14 23  03.9074 19181.3 -14981.0 -37.9905 24338.3
 08 11 2023  14 24  03.9080 19181.4 -14980.8 -37.9899 24338.2
 08 11 2023  14 25  03.9082 19181.6 -14980.6 -37.9893 24338.3
 08 11 2023  14 26  03.9084 19181.4 -14988.7 -38.0047 24343.1
 08 11 2023  14 27  03.9084 19181.1 -14999.4 -38.0250 24349.5
 08 11 2023  14 28  03.9091 19182.0 -15009.0 -38.0415 24356.1
 08 11 2023  14 29  03.9111 19182.8 -15013.5 -38.0486 24359.5
 08 11 2023  14 30  03.9128 19183.5 -15014.1 -38.0488 24360.4
 08 11 2023  14 31  03.9125 19182.7 -15014.4 -38.0505 24360.0
 08 11 2023  14 32  03.9129 19182.4 -15013.9 -38.0498 24359.4
 08 11 2023  14 33  03.9145 19182.6 -15013.4 -38.0487 24359.3
 08 11 2023  14 34  03.9150 19181.9 -15011.4 -38.0461 24357.5
 08 11 2023  14 35  03.9154 19181.1 -15012.5 -38.0492 24357.6
 08 11 2023  14 36  03.9157 19181.0 -15015.8 -38.0555 24359.5
 08 11 2023  14 37  03.9173 19181.2 -15015.5 -38.0547 24359.5
 08 11 2023  14 38  03.9193 19181.7 -15013.8 -38.0508 24358.8
 08 11 2023  14 39  03.9194 19181.2 -15013.2 -38.0504 24358.0
 08 11 2023  14 40  03.9191 19181.1 -15015.3 -38.0545 24359.3
 08 11 2023  14 41  03.9192 19182.4 -15012.8 -38.0478 24358.7
 08 11 2023  14 42  03.9212 19183.1 -15002.2 -38.0271 24352.8
 08 11 2023  14 43  03.9238 19184.1 -14991.4 -38.0057 24346.9
 08 11 2023  14 44  03.9243 19184.7 -14987.9 -37.9983 24345.2
 08 11 2023  14 45  03.9248 19185.5 -14987.2 -37.9960 24345.4
 08 11 2023  14 46  03.9252 19185.7 -14994.7 -38.0095 24350.1
 08 11 2023  14 47  03.9250 19184.1 -15011.5 -38.0430 24359.3
 08 11 2023  14 48  03.9252 19183.7 -15012.1 -38.0446 24359.3
 08 11 2023  14 49  03.9254 19185.2 -15006.1 -38.0313 24356.8
 08 11 2023  14 50  03.9287 19187.2 -14995.8 -38.0093 24352.1
 08 11 2023  14 51  03.9286 19186.4 -14976.7 -37.9751 24339.7
 08 11 2023  14 52  03.9280 19185.6 -14973.4 -37.9701 24337.0
 08 11 2023  14 53  03.9286 19186.0 -14972.4 -37.9678 24336.7
 08 11 2023  14 54  03.9321 19186.0 -14972.1 -37.9672 24336.5
 08 11 2023  14 55  03.9332 19185.5 -14971.8 -37.9673 24336.0
 08 11 2023  14 56  03.9339 19184.7 -14971.5 -37.9679 24335.2
 08 11 2023  14 57  03.9332 19184.9 -14971.3 -37.9674 24335.2
 08 11 2023  14 58  03.9348 19186.1 -14971.1 -37.9651 24336.0
 08 11 2023  14 59  03.9353 19185.4 -14970.7 -37.9655 24335.2
 08 11 2023  15 00  03.9352 19183.8 -14970.6 -37.9676 24333.8
 08 11 2023  15 01  03.9334 19182.3 -14970.6 -37.9698 24332.7
 08 11 2023  15 02  03.9339 19182.1 -14970.6 -37.9701 24332.5
 08 11 2023  15 03  03.9355 19183.1 -14970.5 -37.9684 24333.3
 08 11 2023  15 04  03.9382 19184.3 -14970.2 -37.9661 24334.0
 08 11 2023  15 05  03.9385 19184.4 -14969.8 -37.9654 24333.9
 08 11 2023  15 06  03.9388 19184.2 -14969.6 -37.9651 24333.6
 08 11 2023  15 07  03.9392 19184.1 -14969.5 -37.9651 24333.4
 08 11 2023  15 08  03.9418 19184.9 -14969.3 -37.9636 24334.0
 08 11 2023  15 09  03.9430 19185.4 -14969.0 -37.9622 24334.1
 08 11 2023  15 10  03.9434 19186.4 -14968.7 -37.9602 24334.8
 08 11 2023  15 11  03.9452 19188.1 -14968.3 -37.9571 24335.9
 08 11 2023  15 12  03.9491 19189.8 -14968.0 -37.9540 24337.0
 08 11 2023  15 13  03.9506 19189.4 -14968.0 -37.9547 24336.7
 08 11 2023  15 14  03.9487 19187.7 -14968.1 -37.9572 24335.4
 08 11 2023  15 15  03.9478 19187.2 -14968.2 -37.9582 24335.0
 08 11 2023  15 16  03.9497 19187.7 -14968.3 -37.9577 24335.5
 08 11 2023  15 17  03.9512 19187.4 -14970.1 -37.9614 24336.4
 08 11 2023  15 18  03.9521 19187.1 -14967.8 -37.9577 24334.7
 08 11 2023  15 19  03.9529 19186.9 -14968.9 -37.9599 24335.2
 08 11 2023  15 20  03.9534 19186.8 -14970.1 -37.9623 24336.0
 08 11 2023  15 21  03.9535 19186.1 -14987.8 -37.9961 24346.3
 08 11 2023  15 22  03.9532 19185.5 -14991.7 -38.0043 24348.1
 08 11 2023  15 23  03.9541 19185.5 -15000.7 -38.0209 24353.8
 08 11 2023  15 24  03.9544 19185.5 -15005.0 -38.0289 24356.4
 08 11 2023  15 25  03.9567 19186.5 -15009.2 -38.0352 24359.8
 08 11 2023  15 26  03.9583 19186.8 -15013.1 -38.0421 24362.4
 08 11 2023  15 27  03.9589 19186.4 -15014.9 -38.0460 24363.1
 08 11 2023  15 28  03.9595 19186.4 -15015.1 -38.0463 24363.3
 08 11 2023  15 29  03.9602 19186.6 -15015.2 -38.0463 24363.5
 08 11 2023  15 30  03.9609 19187.0 -15014.9 -38.0450 24363.7
 08 11 2023  15 31  03.9619 19187.2 -15014.4 -38.0439 24363.5
 08 11 2023  15 32  03.9633 19187.4 -15013.6 -38.0420 24363.2
 08 11 2023  15 33  03.9633 19187.6 -15012.2 -38.0393 24362.5
 08 11 2023  15 34  03.9632 19187.4 -15008.4 -38.0325 24359.9
 08 11 2023  15 35  03.9640 19187.9 -15006.8 -38.0289 24359.4
 08 11 2023  15 36  03.9654 19188.9 -15001.3 -38.0171 24356.8
 08 11 2023  15 37  03.9686 19190.7 -14991.9 -37.9971 24352.4
 08 11 2023  15 38  03.9692 19190.7 -15003.3 -38.0183 24359.4
 08 11 2023  15 39  03.9699 19191.3 -15014.1 -38.0374 24366.6
 08 11 2023  15 40  03.9775 19193.9 -15014.5 -38.0343 24368.9
 08 11 2023  15 41  03.9813 19195.7 -15015.2 -38.0329 24370.7
 08 11 2023  15 42  03.9806 19194.9 -15015.1 -38.0340 24370.0
 08 11 2023  15 43  03.9806 19193.6 -15014.4 -38.0347 24368.6
 08 11 2023  15 44  03.9790 19192.0 -15014.2 -38.0364 24367.1
 08 11 2023  15 45  03.9785 19191.6 -15014.5 -38.0376 24367.1
 08 11 2023  15 46  03.9782 19192.0 -15014.1 -38.0364 24367.1
 08 11 2023  15 47  03.9818 19193.4 -15012.8 -38.0320 24367.4
 08 11 2023  15 48  03.9844 19193.0 -15012.7 -38.0324 24367.0
 08 11 2023  15 49  03.9841 19192.3 -15009.8 -38.0279 24364.7
 08 11 2023  15 50  03.9846 19192.2 -15008.7 -38.0261 24363.9
 08 11 2023  15 51  03.9845 19190.8 -15010.0 -38.0305 24363.6
 08 11 2023  15 52  03.9817 19188.7 -15010.4 -38.0344 24362.2
 08 11 2023  15 53  03.9823 19188.9 -15010.2 -38.0337 24362.3
 08 11 2023  15 54  03.9858 19190.6 -15010.6 -38.0320 24363.9
 08 11 2023  15 55  03.9915 19194.1 -15010.4 -38.0264 24366.4
 08 11 2023  15 56  03.9925 19194.7 -15009.8 -38.0244 24366.6
 08 11 2023  15 57  03.9897 19193.1 -15008.8 -38.0250 24364.7
 08 11 2023  15 58  03.9870 19191.3 -15010.0 -38.0297 24364.0
 08 11 2023  15 59  03.9922 19193.8 -15010.3 -38.0267 24366.2
 08 11 2023  16 00  03.9952 19194.8 -15007.3 -38.0197 24365.1
 08 11 2023  16 01  03.9939 19192.0 -15006.4 -38.0220 24362.4
 08 11 2023  16 02  03.9923 19192.0 -15002.6 -38.0151 24360.0
 08 11 2023  16 03  03.9898 19191.3 -14986.2 -37.9857 24349.4
 08 11 2023  16 04  03.9888 19191.1 -14974.8 -37.9647 24342.2
 08 11 2023  16 05  03.9969 19194.3 -14972.1 -37.9552 24343.1
 08 11 2023  16 06  04.0074 19198.3 -14974.1 -37.9530 24347.5
 08 11 2023  16 07  04.0054 19198.5 -14974.0 -37.9527 24347.5
 08 11 2023  16 08  03.9975 19194.9 -14973.0 -37.9558 24344.1
 08 11 2023  16 09  03.9969 19193.8 -14970.6 -37.9531 24341.7
 08 11 2023  16 10  04.0029 19197.4 -14970.5 -37.9478 24344.5
 08 11 2023  16 11  04.0072 19199.7 -14970.6 -37.9446 24346.4
 08 11 2023  16 12  04.0010 19196.9 -14970.9 -37.9492 24344.3
 08 11 2023  16 13  03.9992 19196.1 -14971.3 -37.9510 24344.0
 08 11 2023  16 14  04.0024 19196.6 -14971.7 -37.9511 24344.7
 08 11 2023  16 15  04.0044 19196.2 -14972.8 -37.9537 24345.0
 08 11 2023  16 16  03.9992 19194.5 -14974.6 -37.9595 24344.7
 08 11 2023  16 17  03.9990 19194.5 -14978.8 -37.9672 24347.3
 08 11 2023  16 18  04.0066 19197.6 -14983.6 -37.9717 24352.7
 08 11 2023  16 19  04.0074 19195.8 -14982.2 -37.9718 24350.4
 08 11 2023  16 20  04.0099 19196.9 -14980.2 -37.9664 24350.1
 08 11 2023  16 21  04.0042 19194.6 -14975.8 -37.9615 24345.6
 08 11 2023  16 22  04.0063 19195.9 -14972.6 -37.9538 24344.6
 08 11 2023  16 23  04.0127 19199.6 -14974.2 -37.9514 24348.5
 08 11 2023  16 24  04.0158 19200.5 -14977.6 -37.9564 24351.3
 08 11 2023  16 25  04.0138 19198.5 -14976.9 -37.9580 24349.3
 08 11 2023  16 26  04.0068 19194.3 -14988.3 -37.9852 24353.0
 08 11 2023  16 27  04.0002 19191.0 -14990.8 -37.9947 24352.0
 08 11 2023  16 28  04.0064 19195.5 -14990.0 -37.9866 24355.0
 08 11 2023  16 29  04.0123 19199.5 -14987.8 -37.9767 24356.9
 08 11 2023  16 30  04.0094 19197.5 -14987.4 -37.9790 24355.0
 08 11 2023  16 31  04.0068 19194.8 -14991.6 -37.9905 24355.5
 08 11 2023  16 32  04.0087 19196.2 -14992.9 -37.9911 24357.4
 08 11 2023  16 33  04.0104 19197.9 -14994.3 -37.9912 24359.5
 08 11 2023  16 34  04.0066 19194.2 -14995.2 -37.9983 24357.2
 08 11 2023  16 35  04.0047 19192.5 -14991.2 -37.9933 24353.4
 08 11 2023  16 36  04.0070 19194.5 -14988.9 -37.9860 24353.6
 08 11 2023  16 37  04.0104 19196.3 -14997.0 -37.9984 24360.0
 08 11 2023  16 38  04.0073 19194.7 -15000.0 -38.0063 24360.5
 08 11 2023  16 39  04.0041 19192.0 -15004.4 -38.0185 24361.1
 08 11 2023  16 40  04.0001 19189.0 -15004.8 -38.0234 24359.0
 08 11 2023  16 41  04.0036 19190.5 -15011.6 -38.0339 24364.4
 08 11 2023  16 42  04.0077 19192.0 -15013.1 -38.0345 24366.5
 08 11 2023  16 43  04.0070 19193.5 -15004.7 -38.0168 24362.4
 08 11 2023  16 44  04.0161 19198.9 -15007.9 -38.0149 24368.7
 08 11 2023  16 45  04.0125 19198.5 -14967.8 -37.9411 24343.7
 08 11 2023  16 46  04.0123 19198.2 -14973.9 -37.9529 24347.2
 08 11 2023  16 47  04.0105 19196.7 -15002.4 -38.0079 24363.5
 08 11 2023  16 48  04.0124 19196.3 -14962.9 -37.9352 24339.0
 08 11 2023  16 49  04.0051 19192.0 -14963.0 -37.9416 24335.6
 08 11 2023  16 50  04.0028 19191.5 -14963.6 -37.9434 24335.6
 08 11 2023  16 51  04.0104 19197.5 -14963.8 -37.9351 24340.4
 08 11 2023  16 52  04.0182 19201.7 -14963.3 -37.9282 24343.5
 08 11 2023  16 53  04.0187 19204.2 -14970.1 -37.9372 24349.6
 08 11 2023  16 54  04.0118 19194.6 -14963.9 -37.9395 24338.2
 08 11 2023  16 55  04.0022 19190.0 -14963.7 -37.9457 24334.5
 08 11 2023  16 56  04.0064 19192.3 -14963.9 -37.9429 24336.5
 08 11 2023  16 57  04.0068 19193.9 -14964.9 -37.9424 24338.3
 08 11 2023  16 58  04.0062 19192.9 -14995.0 -37.9996 24356.0
 08 11 2023  16 59  04.0071 19193.2 -15016.5 -38.0391 24369.5
 08 11 2023  17 00  04.0103 19194.2 -15016.5 -38.0377 24370.3
 08 11 2023  17 01  04.0124 19195.3 -15015.9 -38.0349 24370.8
 08 11 2023  17 02  04.0103 19194.4 -15016.3 -38.0369 24370.4
 08 11 2023  17 03  04.0123 19194.4 -15016.3 -38.0369 24370.3
 08 11 2023  17 04  04.0141 19195.2 -15016.3 -38.0358 24371.0
 08 11 2023  17 05  04.0197 19197.7 -15016.5 -38.0325 24373.1
 08 11 2023  17 06  04.0172 19196.1 -15016.5 -38.0349 24371.8
 08 11 2023  17 07  04.0153 19194.4 -15016.5 -38.0373 24370.4
 08 11 2023  17 08  04.0072 19190.8 -15016.4 -38.0423 24367.6
 08 11 2023  17 09  04.0084 19193.0 -15016.3 -38.0389 24369.2
 08 11 2023  17 10  04.0137 19203.3 -15010.2 -38.0128 24373.7
 08 11 2023  17 11  04.0172 19193.9 -15014.7 -38.0346 24369.0
 08 11 2023  17 12  04.0098 19193.3 -15016.3 -38.0385 24369.4
 08 11 2023  17 13  04.0154 19196.8 -15016.4 -38.0336 24372.3
 08 11 2023  17 14  04.0253 19201.7 -15016.5 -38.0268 24376.3
 08 11 2023  17 15  04.0267 19201.4 -15016.4 -38.0270 24375.9
 08 11 2023  17 16  04.0193 19196.5 -15016.4 -38.0341 24372.1
 08 11 2023  17 17  04.0162 19194.7 -15016.3 -38.0365 24370.6
 08 11 2023  17 18  04.0137 19193.4 -15016.2 -38.0383 24369.5
 08 11 2023  17 19  04.0119 19192.4 -15016.3 -38.0399 24368.8
 08 11 2023  17 20  04.0077 19190.4 -15016.4 -38.0428 24367.2
 08 11 2023  17 21  04.0109 19190.9 -15016.3 -38.0421 24367.6
 08 11 2023  17 22  04.0157 19192.9 -15016.0 -38.0385 24369.0
 08 11 2023  17 23  04.0218 19196.3 -15004.5 -38.0123 24364.6
 08 11 2023  17 24  04.0228 19196.0 -14998.3 -38.0013 24360.5
 08 11 2023  17 25  04.0199 19194.5 -15007.4 -38.0203 24364.9
 08 11 2023  17 26  04.0174 19194.2 -14977.3 -37.9648 24346.2
 08 11 2023  17 27  04.0192 19195.9 -14991.7 -37.9891 24356.4
 08 11 2023  17 28  04.0210 19197.2 -15010.6 -38.0224 24369.1
 08 11 2023  17 29  04.0202 19195.0 -15002.8 -38.0111 24362.5
 08 11 2023  17 30  04.0188 19194.0 -15003.7 -38.0141 24362.3
 08 11 2023  17 31  04.0184 19194.8 -15010.4 -38.0254 24367.0
 08 11 2023  17 32  04.0184 19196.2 -15014.4 -38.0308 24370.6
 08 11 2023  17 33  04.0183 19195.0 -15016.1 -38.0358 24370.7
 08 11 2023  17 34  04.0182 19194.5 -15016.1 -38.0364 24370.2
 08 11 2023  17 35  04.0201 19196.3 -15016.2 -38.0340 24371.8
 08 11 2023  17 36  04.0202 19196.7 -15015.8 -38.0328 24371.8
 08 11 2023  17 37  04.0184 19195.7 -15012.3 -38.0276 24368.9
 08 11 2023  17 38  04.0172 19195.0 -15012.2 -38.0285 24368.3
 08 11 2023  17 39  04.0176 19194.8 -15013.6 -38.0315 24369.0
 08 11 2023  17 40  04.0185 19195.5 -15014.3 -38.0317 24370.0
 08 11 2023  17 41  04.0159 19194.6 -15010.2 -38.0253 24366.8
 08 11 2023  17 42  04.0135 19193.0 -14977.0 -37.9660 24345.0
 08 11 2023  17 43  04.0211 19195.9 -15003.2 -38.0106 24363.5
 08 11 2023  17 44  04.0250 19198.6 -14994.3 -37.9902 24360.2
 08 11 2023  17 45  04.0223 19198.1 -15008.8 -38.0176 24368.7
 08 11 2023  17 46  04.0234 19196.9 -14996.7 -37.9971 24360.2
 08 11 2023  17 47  04.0223 19194.6 -14974.4 -37.9590 24344.7
 08 11 2023  17 48  04.0203 19192.7 -14972.4 -37.9580 24342.0
 08 11 2023  17 49  04.0196 19192.7 -14974.4 -37.9617 24343.3
 08 11 2023  17 50  04.0184 19193.6 -14983.5 -37.9772 24349.5
 08 11 2023  17 51  04.0264 19195.5 -14978.6 -37.9655 24348.0
 08 11 2023  17 52  04.0305 19196.2 -14968.9 -37.9466 24342.6
 08 11 2023  17 53  04.0267 19194.6 -14968.8 -37.9486 24341.2
 08 11 2023  17 54  04.0254 19193.9 -14968.8 -37.9496 24340.7
 08 11 2023  17 55  04.0256 19194.8 -14968.8 -37.9483 24341.5
 08 11 2023  17 56  04.0295 19196.1 -14968.7 -37.9461 24342.4
 08 11 2023  17 57  04.0316 19196.4 -14968.4 -37.9453 24342.5
 08 11 2023  17 58  04.0316 19196.1 -15008.6 -38.0201 24366.9
 08 11 2023  17 59  04.0270 19193.8 -15004.7 -38.0164 24362.7
 08 11 2023  18 00  04.0214 19191.2 -14980.9 -37.9760 24346.0
 08 11 2023  18 01  04.0203 19191.8 -14969.3 -37.9536 24339.4
 08 11 2023  18 02  04.0223 19193.3 -14969.5 -37.9517 24340.7
 08 11 2023  18 03  04.0232 19193.2 -14969.5 -37.9519 24340.6
 08 11 2023  18 04  04.0213 19192.0 -14969.6 -37.9539 24339.7
 08 11 2023  18 05  04.0208 19192.0 -14969.8 -37.9542 24339.9
 08 11 2023  18 06  04.0211 19192.5 -14971.1 -37.9559 24341.0
 08 11 2023  18 07  04.0205 19192.2 -14974.3 -37.9623 24342.8
 08 11 2023  18 08  04.0212 19192.4 -14974.4 -37.9621 24342.9
 08 11 2023  18 09  04.0187 19191.3 -14978.3 -37.9710 24344.5
 08 11 2023  18 10  04.0160 19190.9 -14996.0 -38.0043 24355.1
 08 11 2023  18 11  04.0170 19193.0 -15002.9 -38.0142 24361.0
 08 11 2023  18 12  04.0234 19195.2 -14997.3 -38.0006 24359.3
 08 11 2023  18 13  04.0261 19195.2 -14994.0 -37.9945 24357.2
 08 11 2023  18 14  04.0210 19191.2 -14992.7 -37.9978 24353.3
 08 11 2023  18 15  04.0147 19187.5 -14991.9 -38.0018 24349.9
 08 11 2023  18 16  04.0119 19187.6 -14991.4 -38.0007 24349.7
 08 11 2023  18 17  04.0199 19192.9 -14989.0 -37.9885 24352.3
 08 11 2023  18 18  04.0246 19192.9 -14986.1 -37.9832 24350.6
 08 11 2023  18 19  04.0217 19188.8 -14994.7 -38.0051 24352.6
 08 11 2023  18 20  04.0185 19186.7 -15000.1 -38.0181 24354.3
 08 11 2023  18 21  04.0179 19188.9 -14981.6 -37.9806 24344.6
 08 11 2023  18 22  04.0205 19191.3 -15002.7 -38.0163 24359.5
 08 11 2023  18 23  04.0208 19190.8 -15003.2 -38.0179 24359.4
 08 11 2023  18 24  04.0236 19190.2 -14999.1 -38.0111 24356.4
 08 11 2023  18 25  04.0311 19191.9 -14979.5 -37.9723 24345.8
 08 11 2023  18 26  04.0386 19194.0 -14974.4 -37.9599 24344.3
 08 11 2023  18 27  04.0447 19195.8 -14971.2 -37.9512 24343.7
 08 11 2023  18 28  04.0529 19197.6 -14970.2 -37.9470 24344.5
 08 11 2023  18 29  04.0413 19197.0 -14969.9 -37.9470 24343.8
 08 11 2023  18 30  04.0343 19196.4 -14969.8 -37.9478 24343.2
 08 11 2023  18 31  04.0361 19197.5 -14970.1 -37.9468 24344.3
 08 11 2023  18 32  04.0499 19203.9 -14969.7 -37.9368 24349.2
 08 11 2023  18 33  04.0595 19208.5 -14968.7 -37.9282 24352.2
 08 11 2023  18 34  04.0524 19202.9 -14967.9 -37.9348 24347.3
 08 11 2023  18 35  04.0448 19197.4 -14968.2 -37.9434 24343.1
 08 11 2023  18 36  04.0426 19197.6 -14968.9 -37.9444 24343.7
 08 11 2023  18 37  04.0448 19199.6 -14969.1 -37.9419 24345.4
 08 11 2023  18 38  04.0468 19200.4 -14969.1 -37.9407 24346.0
 08 11 2023  18 39  04.0483 19200.5 -14969.0 -37.9403 24346.0
 08 11 2023  18 40  04.0478 19199.3 -14969.0 -37.9421 24345.1
 08 11 2023  18 41  04.0454 19198.2 -14969.2 -37.9441 24344.4
 08 11 2023  18 42  04.0459 19199.1 -14969.5 -37.9433 24345.3
 08 11 2023  18 43  04.0492 19200.3 -14969.5 -37.9417 24346.2
 08 11 2023  18 44  04.0498 19199.8 -14969.5 -37.9424 24345.8
 08 11 2023  18 45  04.0497 19199.0 -14969.7 -37.9438 24345.3
 08 11 2023  18 46  04.0486 19197.9 -14969.9 -37.9457 24344.6
 08 11 2023  18 47  04.0488 19197.5 -14970.1 -37.9468 24344.3
 08 11 2023  18 48  04.0489 19197.1 -14970.3 -37.9477 24344.2
 08 11 2023  18 49  04.0498 19196.6 -14970.5 -37.9489 24344.0
 08 11 2023  18 50  04.0496 19196.3 -14970.7 -37.9497 24343.8
 08 11 2023  18 51  04.0491 19195.6 -14971.0 -37.9512 24343.4
 08 11 2023  18 52  04.0495 19195.6 -14971.3 -37.9518 24343.6
 08 11 2023  18 53  04.0517 19195.6 -14971.4 -37.9521 24343.7
 08 11 2023  18 54  04.0516 19195.4 -14971.6 -37.9526 24343.6
 08 11 2023  18 55  04.0520 19195.6 -14971.8 -37.9527 24343.9
 08 11 2023  18 56  04.0540 19196.0 -14971.9 -37.9523 24344.2
 08 11 2023  18 57  04.0540 19195.3 -14972.0 -37.9535 24343.8
 08 11 2023  18 58  04.0536 19194.8 -14972.3 -37.9548 24343.6
 08 11 2023  18 59  04.0548 19195.4 -14972.5 -37.9543 24344.2
 08 11 2023  19 00  04.0567 19195.4 -14972.5 -37.9544 24344.2
 08 11 2023  19 01  04.0572 19194.5 -14972.8 -37.9561 24343.7
 08 11 2023  19 02  04.0554 19193.8 -14973.0 -37.9575 24343.2
 08 11 2023  19 03  04.0548 19193.7 -14973.2 -37.9581 24343.3
 08 11 2023  19 04  04.0564 19194.6 -14973.4 -37.9572 24344.1
 08 11 2023  19 05  04.0560 19194.2 -14973.6 -37.9580 24343.9
 08 11 2023  19 06  04.0559 19193.6 -14973.7 -37.9592 24343.5
 08 11 2023  19 07  04.0540 19192.0 -14974.0 -37.9620 24342.5
 08 11 2023  19 08  04.0523 19190.7 -14974.4 -37.9646 24341.6
 08 11 2023  19 09  04.0496 19189.2 -14974.8 -37.9676 24340.7
 08 11 2023  19 10  04.0479 19187.9 -14975.3 -37.9704 24340.0
 08 11 2023  19 11  04.0456 19186.1 -14975.7 -37.9737 24338.8
 08 11 2023  19 12  04.0445 19185.1 -14976.2 -37.9761 24338.3
 08 11 2023  19 13  04.0442 19184.2 -14976.6 -37.9781 24337.8
 08 11 2023  19 14  04.0406 19181.8 -14977.0 -37.9824 24336.2
 08 11 2023  19 15  04.0377 19180.5 -14977.6 -37.9853 24335.6
 08 11 2023  19 16  04.0365 19179.9 -14978.1 -37.9872 24335.4
 08 11 2023  19 17  04.0341 19177.9 -14978.6 -37.9908 24334.1
 08 11 2023  19 18  04.0308 19176.5 -14979.1 -37.9939 24333.3
 08 11 2023  19 19  04.0315 19176.6 -14979.5 -37.9947 24333.7
 08 11 2023  19 20  04.0312 19175.9 -14979.9 -37.9963 24333.3
 08 11 2023  19 21  04.0302 19175.1 -14980.2 -37.9980 24332.9
 08 11 2023  19 22  04.0294 19175.0 -14980.6 -37.9989 24333.1
 08 11 2023  19 23  04.0297 19175.2 -14980.8 -37.9991 24333.3
 08 11 2023  19 24  04.0278 19174.0 -14981.1 -38.0013 24332.6
 08 11 2023  19 25  04.0295 19174.2 -14981.4 -38.0016 24333.0
 08 11 2023  19 26  04.0330 19175.8 -14981.5 -37.9995 24334.3
 08 11 2023  19 27  04.0351 19176.6 -14981.4 -37.9980 24334.9
 08 11 2023  19 28  04.0354 19176.1 -14981.3 -37.9987 24334.4
 08 11 2023  19 29  04.0371 19176.2 -14981.4 -37.9987 24334.5
 08 11 2023  19 30  04.0391 19176.4 -14981.4 -37.9983 24334.7
 08 11 2023  19 31  04.0399 19175.8 -14981.3 -37.9991 24334.1
 08 11 2023  19 32  04.0379 19174.4 -14981.5 -38.0014 24333.2
 08 11 2023  19 33  04.0376 19174.5 -14981.6 -38.0015 24333.4
 08 11 2023  19 34  04.0381 19174.4 -14981.8 -38.0021 24333.3
 08 11 2023  19 35  04.0387 19173.8 -14981.9 -38.0031 24333.0
 08 11 2023  19 36  04.0381 19172.9 -14982.1 -38.0047 24332.4
 08 11 2023  19 37  04.0365 19172.2 -14982.3 -38.0061 24332.0
 08 11 2023  19 38  04.0342 19171.0 -14982.6 -38.0084 24331.1
 08 11 2023  19 39  04.0315 19169.2 -14983.0 -38.0116 24330.0
 08 11 2023  19 40  04.0313 19168.9 -14983.3 -38.0128 24330.0
 08 11 2023  19 41  04.0323 19168.7 -14983.6 -38.0136 24330.0
 08 11 2023  19 42  04.0355 19169.6 -14983.7 -38.0125 24330.7
 08 11 2023  19 43  04.0375 19169.4 -14983.7 -38.0127 24330.6
 08 11 2023  19 44  04.0378 19169.4 -14983.7 -38.0127 24330.6
 08 11 2023  19 45  04.0408 19170.7 -14983.7 -38.0108 24331.6
 08 11 2023  19 46  04.0431 19171.6 -14983.5 -38.0093 24332.2
 08 11 2023  19 47  04.0453 19172.5 -14983.4 -38.0076 24332.8
 08 11 2023  19 48  04.0468 19172.4 -14983.2 -38.0074 24332.6
 08 11 2023  19 49  04.0455 19171.6 -14983.2 -38.0086 24332.0
 08 11 2023  19 50  04.0428 19170.1 -14983.3 -38.0110 24330.9
 08 11 2023  19 51  04.0400 19168.9 -14983.6 -38.0132 24330.2
 08 11 2023  19 52  04.0388 19168.1 -14983.9 -38.0151 24329.7
 08 11 2023  19 53  04.0380 19167.6 -14984.3 -38.0164 24329.5
 08 11 2023  19 54  04.0389 19167.9 -14984.5 -38.0165 24329.9
 08 11 2023  19 55  04.0393 19167.5 -14984.6 -38.0173 24329.6
 08 11 2023  19 56  04.0384 19167.2 -14984.8 -38.0180 24329.6
 08 11 2023  19 57  04.0361 19166.5 -14985.1 -38.0195 24329.1
 08 11 2023  19 58  04.0340 19165.5 -14985.4 -38.0215 24328.6
 08 11 2023  19 59  04.0313 19164.4 -14985.8 -38.0240 24327.9
 08 11 2023  20 00  04.0296 19164.0 -14986.2 -38.0252 24327.9
 08 11 2023  20 01  04.0270 19164.0 -14986.5 -38.0258 24328.0
 08 11 2023  20 02  04.0261 19163.7 -14986.8 -38.0267 24328.0
 08 11 2023  20 03  04.0232 19162.8 -14987.2 -38.0288 24327.5
 08 11 2023  20 04  04.0198 19162.5 -14987.6 -38.0301 24327.5
 08 11 2023  20 05  04.0188 19162.6 -14988.0 -38.0307 24327.9
 08 11 2023  20 06  04.0177 19162.2 -14988.4 -38.0318 24327.8
 08 11 2023  20 07  04.0136 19161.1 -14988.7 -38.0340 24327.1
 08 11 2023  20 08  04.0122 19161.1 -14989.0 -38.0346 24327.3
 08 11 2023  20 09  04.0107 19160.1 -14989.3 -38.0367 24326.7
 08 11 2023  20 10  04.0069 19159.1 -14989.7 -38.0388 24326.2
 08 11 2023  20 11  04.0035 19158.9 -14990.0 -38.0396 24326.2
 08 11 2023  20 12  04.0011 19158.1 -14990.4 -38.0415 24325.8
 08 11 2023  20 13  03.9979 19157.3 -14990.8 -38.0434 24325.4
 08 11 2023  20 14  03.9970 19157.7 -14991.1 -38.0433 24325.9
 08 11 2023  20 15  03.9968 19157.8 -14991.3 -38.0436 24326.1
 08 11 2023  20 16  03.9940 19157.1 -14991.5 -38.0451 24325.7
 08 11 2023  20 17  03.9923 19157.2 -14991.8 -38.0455 24325.9
 08 11 2023  20 18  03.9908 19157.4 -14992.0 -38.0455 24326.2
 08 11 2023  20 19  03.9888 19157.1 -14992.1 -38.0462 24326.1
 08 11 2023  20 20  03.9877 19157.1 -14992.4 -38.0467 24326.2
 08 11 2023  20 21  03.9859 19157.2 -14992.6 -38.0471 24326.5
 08 11 2023  20 22  03.9847 19157.7 -14992.8 -38.0466 24327.0
 08 11 2023  20 23  03.9837 19158.0 -14992.9 -38.0464 24327.3
 08 11 2023  20 24  03.9825 19158.0 -14993.0 -38.0467 24327.3
 08 11 2023  20 25  03.9824 19158.1 -14993.1 -38.0467 24327.5
 08 11 2023  20 26  03.9819 19158.2 -14993.2 -38.0466 24327.6
 08 11 2023  20 27  03.9806 19158.3 -14993.2 -38.0466 24327.7
 08 11 2023  20 28  03.9786 19158.2 -14993.4 -38.0469 24327.7
 08 11 2023  20 29  03.9795 19158.4 -14993.5 -38.0468 24328.0
 08 11 2023  20 30  03.9788 19158.3 -14993.5 -38.0471 24327.9
 08 11 2023  20 31  03.9775 19158.4 -14993.6 -38.0470 24328.0
 08 11 2023  20 32  03.9755 19157.8 -14993.7 -38.0480 24327.6
 08 11 2023  20 33  03.9735 19157.2 -14993.8 -38.0492 24327.2
 08 11 2023  20 34  03.9685 19158.0 -14994.1 -38.0486 24328.0
 08 11 2023  20 35  03.9696 19158.0 -14994.2 -38.0488 24328.1
 08 11 2023  20 36  03.9710 19158.7 -14994.3 -38.0479 24328.6
 08 11 2023  20 37  03.9730 19159.8 -14994.3 -38.0464 24329.6
 08 11 2023  20 38  03.9751 19160.4 -14994.1 -38.0451 24329.9
 08 11 2023  20 39  03.9732 19160.4 -14994.1 -38.0450 24329.9
 08 11 2023  20 40  03.9714 19160.9 -14994.0 -38.0442 24330.2
 08 11 2023  20 41  03.9708 19161.2 -14994.0 -38.0437 24330.5
 08 11 2023  20 42  03.9698 19161.5 -14994.0 -38.0432 24330.7
 08 11 2023  20 43  03.9693 19162.3 -14994.0 -38.0421 24331.4
 08 11 2023  20 44  03.9681 19163.6 -14994.0 -38.0403 24332.3
 08 11 2023  20 45  03.9685 19164.6 -14994.0 -38.0388 24333.2
 08 11 2023  20 46  03.9681 19164.9 -14993.9 -38.0383 24333.3
 08 11 2023  20 47  03.9654 19164.6 -14994.0 -38.0388 24333.2
 08 11 2023  20 48  03.9630 19165.1 -14994.1 -38.0384 24333.6
 08 11 2023  20 49  03.9617 19165.8 -14994.2 -38.0374 24334.2
 08 11 2023  20 50  03.9609 19166.0 -14994.3 -38.0372 24334.4
 08 11 2023  20 51  03.9596 19166.2 -14994.3 -38.0371 24334.6
 08 11 2023  20 52  03.9586 19166.3 -14994.4 -38.0370 24334.8
 08 11 2023  20 53  03.9579 19166.6 -14994.5 -38.0369 24335.0
 08 11 2023  20 54  03.9570 19167.0 -14994.5 -38.0363 24335.3
 08 11 2023  20 55  03.9568 19167.2 -14994.5 -38.0360 24335.5
 08 11 2023  20 56  03.9557 19167.2 -14994.5 -38.0361 24335.5
 08 11 2023  20 57  03.9555 19167.6 -14994.6 -38.0356 24335.8
 08 11 2023  20 58  03.9561 19168.4 -14994.5 -38.0343 24336.4
 08 11 2023  20 59  03.9559 19168.4 -14994.4 -38.0341 24336.4
 08 11 2023  21 00  03.9546 19168.3 -14994.4 -38.0341 24336.3
 08 11 2023  21 01  03.9532 19168.4 -14994.3 -38.0339 24336.4
 08 11 2023  21 02  03.9522 19167.8 -14994.4 -38.0348 24335.9
 08 11 2023  21 03  03.9500 19167.6 -14994.5 -38.0354 24335.8
 08 11 2023  21 04  03.9483 19167.2 -14994.6 -38.0361 24335.5
 08 11 2023  21 05  03.9477 19167.1 -14994.7 -38.0364 24335.5
 08 11 2023  21 06  03.9473 19167.2 -14994.7 -38.0363 24335.6
 08 11 2023  21 07  03.9482 19167.9 -14994.7 -38.0353 24336.2
 08 11 2023  21 08  03.9488 19168.4 -14994.7 -38.0346 24336.5
 08 11 2023  21 09  03.9497 19168.5 -14994.6 -38.0343 24336.5
 08 11 2023  21 10  03.9503 19168.4 -14994.5 -38.0343 24336.5
 08 11 2023  21 11  03.9508 19168.6 -14994.5 -38.0339 24336.6
 08 11 2023  21 12  03.9516 19168.9 -14994.4 -38.0334 24336.7
 08 11 2023  21 13  03.9522 19169.0 -14994.3 -38.0329 24336.8
 08 11 2023  21 14  03.9524 19169.2 -14994.2 -38.0325 24336.8
 08 11 2023  21 15  03.9524 19169.1 -14994.1 -38.0325 24336.8
 08 11 2023  21 16  03.9522 19168.8 -14994.2 -38.0331 24336.6
 08 11 2023  21 17  03.9509 19168.6 -14994.2 -38.0333 24336.4
 08 11 2023  21 18  03.9493 19168.9 -14994.1 -38.0329 24336.6
 08 11 2023  21 19  03.9498 19169.6 -14994.1 -38.0318 24337.1
 08 11 2023  21 20  03.9509 19169.5 -14994.1 -38.0319 24337.1
 08 11 2023  21 21  03.9513 19170.0 -14994.0 -38.0311 24337.4
 08 11 2023  21 22  03.9515 19171.0 -14994.0 -38.0294 24338.2
 08 11 2023  21 23  03.9514 19172.6 -14993.9 -38.0269 24339.4
 08 11 2023  21 24  03.9539 19174.1 -14993.6 -38.0244 24340.4
 08 11 2023  21 25  03.9551 19174.6 -14993.5 -38.0233 24340.7
 08 11 2023  21 26  03.9566 19174.6 -14993.2 -38.0228 24340.5
 08 11 2023  21 27  03.9550 19172.8 -14993.1 -38.0252 24339.0
 08 11 2023  21 28  03.9515 19170.6 -14993.1 -38.0285 24337.3
 08 11 2023  21 29  03.9508 19170.5 -14993.3 -38.0289 24337.3
 08 11 2023  21 30  03.9525 19171.2 -14993.2 -38.0278 24337.8
 08 11 2023  21 31  03.9530 19171.5 -14992.9 -38.0268 24337.9
 08 11 2023  21 32  03.9525 19171.7 -14992.8 -38.0263 24338.0
 08 11 2023  21 33  03.9531 19172.2 -14992.7 -38.0254 24338.3
 08 11 2023  21 34  03.9534 19172.0 -14992.6 -38.0255 24338.1
 08 11 2023  21 35  03.9524 19171.3 -14992.6 -38.0265 24337.5
 08 11 2023  21 36  03.9514 19170.5 -14992.7 -38.0278 24337.0
 08 11 2023  21 37  03.9507 19170.5 -14992.6 -38.0277 24337.0
 08 11 2023  21 38  03.9514 19171.3 -14992.5 -38.0263 24337.5
 08 11 2023  21 39  03.9534 19171.7 -14992.3 -38.0254 24337.7
 08 11 2023  21 40  03.9545 19171.1 -14992.2 -38.0261 24337.2
 08 11 2023  21 41  03.9550 19170.6 -14992.1 -38.0267 24336.7
 08 11 2023  21 42  03.9556 19170.0 -14992.0 -38.0273 24336.2
 08 11 2023  21 43  03.9564 19169.9 -14991.9 -38.0271 24336.0
 08 11 2023  21 44  03.9566 19169.4 -14991.8 -38.0278 24335.5
 08 11 2023  21 45  03.9550 19168.5 -14991.7 -38.0290 24334.8
 08 11 2023  21 46  03.9528 19167.4 -14991.7 -38.0305 24333.9
 08 11 2023  21 47  03.9521 19166.9 -14991.8 -38.0314 24333.6
 08 11 2023  21 48  03.9532 19167.6 -14991.7 -38.0302 24334.1
 08 11 2023  21 49  03.9542 19167.5 -14991.6 -38.0303 24333.9
 08 11 2023  21 50  03.9529 19166.7 -14991.6 -38.0314 24333.3
 08 11 2023  21 51  03.9516 19165.3 -14991.7 -38.0336 24332.3
 08 11 2023  21 52  03.9493 19164.3 -14991.9 -38.0354 24331.6
 08 11 2023  21 53  03.9487 19164.8 -14992.0 -38.0348 24332.1
 08 11 2023  21 54  03.9499 19166.7 -14992.0 -38.0321 24333.5
 08 11 2023  21 55  03.9520 19167.7 -14991.8 -38.0303 24334.3
 08 11 2023  21 56  03.9529 19167.8 -14991.7 -38.0300 24334.2
 08 11 2023  21 57  03.9524 19166.9 -14991.6 -38.0310 24333.4
 08 11 2023  21 58  03.9510 19165.6 -14991.6 -38.0328 24332.5
 08 11 2023  21 59  03.9503 19165.3 -14991.6 -38.0333 24332.3
 08 11 2023  22 00  03.9504 19165.4 -14991.6 -38.0333 24332.3
 08 11 2023  22 01  03.9505 19165.5 -14991.6 -38.0330 24332.4
 08 11 2023  22 02  03.9511 19165.7 -14991.5 -38.0327 24332.4
 08 11 2023  22 03  03.9514 19165.8 -14991.4 -38.0324 24332.5
 08 11 2023  22 04  03.9520 19166.2 -14991.4 -38.0316 24332.8
 08 11 2023  22 05  03.9527 19167.0 -14991.3 -38.0302 24333.4
 08 11 2023  22 06  03.9532 19167.4 -14991.1 -38.0294 24333.6
 08 11 2023  22 07  03.9536 19167.7 -14991.0 -38.0287 24333.7
 08 11 2023  22 08  03.9540 19167.7 -14990.9 -38.0285 24333.7
 08 11 2023  22 09  03.9542 19167.4 -14990.7 -38.0287 24333.3
 08 11 2023  22 10  03.9551 19167.5 -14990.7 -38.0284 24333.4
 08 11 2023  22 11  03.9553 19167.9 -14990.6 -38.0276 24333.6
 08 11 2023  22 12  03.9553 19167.9 -14990.4 -38.0274 24333.5
 08 11 2023  22 13  03.9559 19167.9 -14990.3 -38.0271 24333.5
 08 11 2023  22 14  03.9567 19168.0 -14990.2 -38.0268 24333.5
 08 11 2023  22 15  03.9570 19167.9 -14990.1 -38.0268 24333.3
 08 11 2023  22 16  03.9575 19168.0 -14990.0 -38.0264 24333.3
 08 11 2023  22 17  03.9572 19167.9 -14989.8 -38.0264 24333.1
 08 11 2023  22 18  03.9567 19167.6 -14989.8 -38.0267 24332.9
 08 11 2023  22 19  03.9560 19167.6 -14989.8 -38.0267 24332.9
 08 11 2023  22 20  03.9567 19168.0 -14989.8 -38.0260 24333.2
 08 11 2023  22 21  03.9572 19168.2 -14989.8 -38.0257 24333.4
 08 11 2023  22 22  03.9577 19168.3 -14989.8 -38.0257 24333.4
 08 11 2023  22 23  03.9585 19168.6 -14989.7 -38.0252 24333.6
 08 11 2023  22 24  03.9594 19169.0 -14989.6 -38.0243 24334.0
 08 11 2023  22 25  03.9602 19169.1 -14989.6 -38.0241 24334.0
 08 11 2023  22 26  03.9611 19169.3 -14989.5 -38.0237 24334.1
 08 11 2023  22 27  03.9611 19169.2 -14989.4 -38.0237 24333.9
 08 11 2023  22 28  03.9609 19168.9 -14989.5 -38.0242 24333.7
 08 11 2023  22 29  03.9609 19168.7 -14989.4 -38.0244 24333.6
 08 11 2023  22 30  03.9606 19168.4 -14989.4 -38.0248 24333.3
 08 11 2023  22 31  03.9604 19168.4 -14989.4 -38.0249 24333.3
 08 11 2023  22 32  03.9601 19168.1 -14989.5 -38.0254 24333.1
 08 11 2023  22 33  03.9604 19168.1 -14989.5 -38.0254 24333.2
 08 11 2023  22 34  03.9610 19168.7 -14989.4 -38.0245 24333.5
 08 11 2023  22 35  03.9609 19168.5 -14989.4 -38.0247 24333.4
 08 11 2023  22 36  03.9607 19168.0 -14989.5 -38.0255 24333.0
 08 11 2023  22 37  03.9604 19167.9 -14989.5 -38.0257 24333.0
 08 11 2023  22 38  03.9604 19167.9 -14989.5 -38.0257 24333.0
 08 11 2023  22 39  03.9604 19167.6 -14989.5 -38.0261 24332.8
 08 11 2023  22 40  03.9601 19167.5 -14989.5 -38.0264 24332.6
 08 11 2023  22 41  03.9596 19167.4 -14989.5 -38.0264 24332.6
 08 11 2023  22 42  03.9595 19167.1 -14989.5 -38.0269 24332.3
 08 11 2023  22 43  03.9596 19167.1 -14989.5 -38.0270 24332.3
 08 11 2023  22 44  03.9596 19167.3 -14989.5 -38.0266 24332.5
 08 11 2023  22 45  03.9606 19167.9 -14989.5 -38.0257 24333.0
 08 11 2023  22 46  03.9612 19168.6 -14989.4 -38.0245 24333.5
 08 11 2023  22 47  03.9615 19168.3 -14989.4 -38.0249 24333.2
 08 11 2023  22 48  03.9619 19168.4 -14989.3 -38.0247 24333.3
 08 11 2023  22 49  03.9625 19168.9 -14989.3 -38.0238 24333.6
 08 11 2023  22 50  03.9636 19169.3 -14989.2 -38.0230 24333.9
 08 11 2023  22 51  03.9638 19169.3 -14989.1 -38.0229 24333.8
 08 11 2023  22 52  03.9634 19168.5 -14989.1 -38.0241 24333.2
 08 11 2023  22 53  03.9628 19168.2 -14989.1 -38.0244 24333.0
 08 11 2023  22 54  03.9626 19168.0 -14989.1 -38.0248 24332.8
 08 11 2023  22 55  03.9622 19167.7 -14989.0 -38.0251 24332.5
 08 11 2023  22 56  03.9619 19167.5 -14989.0 -38.0255 24332.3
 08 11 2023  22 57  03.9618 19167.0 -14989.0 -38.0261 24332.0
 08 11 2023  22 58  03.9613 19166.2 -14989.0 -38.0273 24331.3
 08 11 2023  22 59  03.9610 19165.8 -14989.1 -38.0279 24331.1
 08 11 2023  23 00  03.9609 19165.5 -14989.1 -38.0283 24330.8
 08 11 2023  23 01  03.9610 19165.4 -14989.1 -38.0286 24330.8
 08 11 2023  23 02  03.9617 19165.9 -14989.1 -38.0279 24331.1
 08 11 2023  23 03  03.9616 19165.4 -14989.0 -38.0284 24330.7
 08 11 2023  23 04  03.9613 19165.1 -14989.0 -38.0288 24330.5
 08 11 2023  23 05  03.9617 19165.5 -14989.0 -38.0282 24330.7
 08 11 2023  23 06  03.9622 19166.2 -14988.9 -38.0270 24331.3
 08 11 2023  23 07  03.9617 19166.2 -14988.8 -38.0269 24331.2
 08 11 2023  23 08  03.9615 19165.8 -14988.7 -38.0273 24330.8
 08 11 2023  23 09  03.9609 19165.4 -14988.7 -38.0279 24330.5
 08 11 2023  23 10  03.9610 19165.6 -14988.7 -38.0275 24330.7
 08 11 2023  23 11  03.9617 19166.0 -14988.6 -38.0269 24330.9
 08 11 2023  23 12  03.9629 19166.7 -14988.6 -38.0257 24331.5
 08 11 2023  23 13  03.9632 19167.0 -14988.4 -38.0250 24331.6
 08 11 2023  23 14  03.9631 19167.1 -14988.4 -38.0247 24331.7
 08 11 2023  23 15  03.9636 19167.6 -14988.3 -38.0240 24332.0
 08 11 2023  23 16  03.9637 19168.0 -14988.3 -38.0233 24332.3
 08 11 2023  23 17  03.9639 19168.7 -14988.2 -38.0221 24332.8
 08 11 2023  23 18  03.9636 19169.1 -14988.1 -38.0214 24333.0
 08 11 2023  23 19  03.9628 19169.0 -14988.1 -38.0216 24332.9
 08 11 2023  23 20  03.9618 19168.5 -14988.1 -38.0223 24332.6
 08 11 2023  23 21  03.9610 19168.0 -14988.2 -38.0231 24332.3
 08 11 2023  23 22  03.9605 19167.6 -14988.3 -38.0239 24332.0
 08 11 2023  23 23  03.9602 19167.7 -14988.3 -38.0239 24332.1
 08 11 2023  23 24  03.9586 19167.3 -14988.4 -38.0246 24331.8
 08 11 2023  23 25  03.9575 19168.0 -14988.5 -38.0237 24332.4
 08 11 2023  23 26  03.9567 19169.1 -14988.5 -38.0220 24333.3
 08 11 2023  23 27  03.9561 19169.5 -14988.5 -38.0214 24333.6
 08 11 2023  23 28  03.9549 19169.5 -14988.5 -38.0216 24333.6
 08 11 2023  23 29  03.9544 19169.2 -14988.6 -38.0221 24333.4
 08 11 2023  23 30  03.9548 19169.8 -14988.6 -38.0213 24333.9
 08 11 2023  23 31  03.9544 19170.7 -14988.6 -38.0200 24334.6
 08 11 2023  23 32  03.9545 19171.5 -14988.6 -38.0188 24335.2
 08 11 2023  23 33  03.9554 19172.1 -14988.5 -38.0179 24335.7
 08 11 2023  23 34  03.9564 19172.6 -14988.5 -38.0170 24336.0
 08 11 2023  23 35  03.9565 19173.0 -14988.4 -38.0162 24336.3
 08 11 2023  23 36  03.9563 19173.2 -14988.3 -38.0159 24336.4
 08 11 2023  23 37  03.9562 19173.0 -14988.3 -38.0160 24336.3
 08 11 2023  23 38  03.9567 19173.3 -14988.3 -38.0156 24336.5
 08 11 2023  23 39  03.9566 19173.3 -14988.2 -38.0155 24336.4
 08 11 2023  23 40  03.9568 19173.2 -14988.2 -38.0157 24336.3
 08 11 2023  23 41  03.9568 19172.9 -14988.2 -38.0161 24336.1
 08 11 2023  23 42  03.9566 19172.7 -14988.2 -38.0164 24335.9
 08 11 2023  23 43  03.9571 19172.7 -14988.2 -38.0163 24336.0
 08 11 2023  23 44  03.9573 19172.7 -14988.2 -38.0162 24336.0
 08 11 2023  23 45  03.9576 19172.7 -14988.2 -38.0163 24336.0
 08 11 2023  23 46  03.9578 19172.8 -14988.2 -38.0162 24336.0
 08 11 2023  23 47  03.9575 19172.8 -14988.1 -38.0160 24336.0
 08 11 2023  23 48  03.9576 19172.7 -14988.1 -38.0161 24336.0
 08 11 2023  23 49  03.9579 19172.7 -14988.1 -38.0162 24335.9
 08 11 2023  23 50  03.9583 19172.8 -14988.1 -38.0160 24336.0
 08 11 2023  23 51  03.9586 19172.7 -14988.1 -38.0161 24335.9
 08 11 2023  23 52  03.9586 19172.5 -14988.1 -38.0165 24335.7
 08 11 2023  23 53  03.9586 19172.2 -14988.1 -38.0169 24335.5
 08 11 2023  23 54  03.9587 19172.1 -14988.1 -38.0170 24335.5
 08 11 2023  23 55  03.9593 19172.1 -14988.1 -38.0171 24335.4
 08 11 2023  23 56  03.9599 19172.1 -14988.2 -38.0172 24335.5
 08 11 2023  23 57  03.9601 19171.8 -14988.2 -38.0177 24335.2
 08 11 2023  23 58  03.9604 19171.6 -14988.2 -38.0179 24335.1
 08 11 2023  23 59  03.9609 19171.6 -14988.2 -38.0179 24335.1
