CHILLAN EMBRACE-14 <310> 1 Min. Reported data

 DD MM YYYY  HH MM   D(Deg)  H(nT)   Z(nT)   I(Deg)   F(nT)

 05 11 2024  00 00  03.8525 19112.4 -14984.9 -38.0977 24286.4
 05 11 2024  00 01  03.8527 19112.3 -14984.8 -38.0977 24286.3
 05 11 2024  00 02  03.8528 19112.2 -14984.7 -38.0978 24286.2
 05 11 2024  00 03  03.8530 19112.1 -14984.7 -38.0978 24286.1
 05 11 2024  00 04  03.8531 19112.1 -14984.7 -38.0979 24286.0
 05 11 2024  00 05  03.8530 19112.1 -14984.7 -38.0978 24286.1
 05 11 2024  00 06  03.8527 19112.0 -14984.6 -38.0979 24285.9
 05 11 2024  00 07  03.8528 19111.9 -14984.6 -38.0979 24285.9
 05 11 2024  00 08  03.8532 19111.9 -14984.6 -38.0980 24285.8
 05 11 2024  00 09  03.8540 19112.2 -14984.6 -38.0975 24286.0
 05 11 2024  00 10  03.8545 19112.6 -14984.5 -38.0968 24286.3
 05 11 2024  00 11  03.8551 19112.8 -14984.4 -38.0962 24286.5
 05 11 2024  00 12  03.8555 19113.0 -14984.3 -38.0959 24286.5
 05 11 2024  00 13  03.8557 19112.9 -14984.3 -38.0959 24286.5
 05 11 2024  00 14  03.8559 19112.9 -14984.3 -38.0959 24286.4
 05 11 2024  00 15  03.8561 19113.2 -14984.2 -38.0954 24286.7
 05 11 2024  00 16  03.8560 19113.5 -14984.2 -38.0949 24286.9
 05 11 2024  00 17  03.8562 19113.9 -14984.2 -38.0942 24287.2
 05 11 2024  00 18  03.8566 19114.1 -14984.2 -38.0939 24287.3
 05 11 2024  00 19  03.8569 19114.3 -14984.1 -38.0936 24287.5
 05 11 2024  00 20  03.8571 19114.6 -14984.1 -38.0931 24287.7
 05 11 2024  00 21  03.8571 19114.7 -14984.1 -38.0930 24287.7
 05 11 2024  00 22  03.8571 19114.5 -14984.1 -38.0931 24287.6
 05 11 2024  00 23  03.8571 19114.7 -14984.0 -38.0928 24287.7
 05 11 2024  00 24  03.8570 19114.6 -14984.0 -38.0930 24287.7
 05 11 2024  00 25  03.8573 19114.8 -14984.1 -38.0928 24287.8
 05 11 2024  00 26  03.8573 19114.9 -14984.0 -38.0926 24287.9
 05 11 2024  00 27  03.8575 19115.0 -14984.0 -38.0924 24287.9
 05 11 2024  00 28  03.8574 19115.0 -14984.0 -38.0925 24287.9
 05 11 2024  00 29  03.8573 19115.0 -14984.0 -38.0925 24287.9
 05 11 2024  00 30  03.8570 19115.0 -14984.0 -38.0925 24287.9
 05 11 2024  00 31  03.8571 19115.1 -14984.1 -38.0923 24288.1
 05 11 2024  00 32  03.8571 19115.4 -14984.1 -38.0919 24288.3
 05 11 2024  00 33  03.8568 19115.8 -14984.0 -38.0912 24288.6
 05 11 2024  00 34  03.8569 19116.0 -14984.1 -38.0910 24288.7
 05 11 2024  00 35  03.8571 19116.3 -14984.1 -38.0906 24289.0
 05 11 2024  00 36  03.8566 19116.7 -14984.1 -38.0901 24289.3
 05 11 2024  00 37  03.8558 19116.8 -14984.1 -38.0899 24289.4
 05 11 2024  00 38  03.8554 19117.0 -14984.1 -38.0897 24289.5
 05 11 2024  00 39  03.8555 19116.9 -14984.1 -38.0899 24289.5
 05 11 2024  00 40  03.8556 19117.2 -14984.2 -38.0895 24289.8
 05 11 2024  00 41  03.8553 19117.5 -14984.2 -38.0890 24290.0
 05 11 2024  00 42  03.8551 19117.8 -14984.2 -38.0886 24290.2
 05 11 2024  00 43  03.8550 19118.3 -14984.2 -38.0879 24290.6
 05 11 2024  00 44  03.8548 19118.6 -14984.2 -38.0875 24290.8
 05 11 2024  00 45  03.8548 19118.8 -14984.2 -38.0872 24291.1
 05 11 2024  00 46  03.8547 19119.2 -14984.2 -38.0865 24291.4
 05 11 2024  00 47  03.8545 19119.5 -14984.2 -38.0862 24291.6
 05 11 2024  00 48  03.8543 19119.7 -14984.2 -38.0859 24291.8
 05 11 2024  00 49  03.8542 19119.7 -14984.2 -38.0859 24291.7
 05 11 2024  00 50  03.8542 19119.8 -14984.2 -38.0858 24291.8
 05 11 2024  00 51  03.8544 19119.9 -14984.2 -38.0856 24291.9
 05 11 2024  00 52  03.8546 19120.0 -14984.2 -38.0854 24292.0
 05 11 2024  00 53  03.8545 19120.2 -14984.2 -38.0853 24292.1
 05 11 2024  00 54  03.8544 19120.2 -14984.2 -38.0852 24292.1
 05 11 2024  00 55  03.8543 19119.9 -14984.2 -38.0855 24291.9
 05 11 2024  00 56  03.8541 19119.6 -14984.2 -38.0860 24291.7
 05 11 2024  00 57  03.8542 19119.7 -14984.3 -38.0860 24291.8
 05 11 2024  00 58  03.8544 19119.7 -14984.2 -38.0859 24291.8
 05 11 2024  00 59  03.8544 19119.9 -14984.2 -38.0856 24291.8
 05 11 2024  01 00  03.8542 19119.9 -14984.1 -38.0855 24291.9
 05 11 2024  01 01  03.8537 19119.9 -14984.2 -38.0855 24291.9
 05 11 2024  01 02  03.8532 19120.0 -14984.1 -38.0853 24292.0
 05 11 2024  01 03  03.8531 19120.2 -14984.2 -38.0851 24292.1
 05 11 2024  01 04  03.8527 19120.2 -14984.3 -38.0852 24292.2
 05 11 2024  01 05  03.8523 19120.1 -14984.3 -38.0855 24292.1
 05 11 2024  01 06  03.8523 19120.0 -14984.3 -38.0856 24292.1
 05 11 2024  01 07  03.8525 19120.1 -14984.3 -38.0855 24292.1
 05 11 2024  01 08  03.8523 19120.0 -14984.4 -38.0859 24292.1
 05 11 2024  01 09  03.8522 19120.3 -14984.3 -38.0853 24292.3
 05 11 2024  01 10  03.8522 19120.4 -14984.3 -38.0851 24292.4
 05 11 2024  01 11  03.8523 19120.6 -14984.4 -38.0850 24292.6
 05 11 2024  01 12  03.8520 19120.9 -14984.4 -38.0845 24292.8
 05 11 2024  01 13  03.8515 19121.2 -14984.4 -38.0840 24293.0
 05 11 2024  01 14  03.8513 19120.7 -14984.7 -38.0853 24292.9
 05 11 2024  01 15  03.8505 19121.1 -14984.4 -38.0842 24293.0
 05 11 2024  01 16  03.8505 19120.9 -14984.6 -38.0849 24293.0
 05 11 2024  01 17  03.8502 19121.2 -14984.5 -38.0842 24293.1
 05 11 2024  01 18  03.8504 19121.3 -14984.5 -38.0842 24293.2
 05 11 2024  01 19  03.8502 19121.2 -14984.6 -38.0844 24293.2
 05 11 2024  01 20  03.8499 19121.0 -14984.6 -38.0848 24293.0
 05 11 2024  01 21  03.8498 19120.8 -14984.7 -38.0851 24292.9
 05 11 2024  01 22  03.8496 19120.7 -14984.7 -38.0853 24292.9
 05 11 2024  01 23  03.8495 19120.8 -14984.7 -38.0852 24293.0
 05 11 2024  01 24  03.8494 19121.4 -14984.8 -38.0845 24293.4
 05 11 2024  01 25  03.8493 19122.1 -14984.7 -38.0834 24293.9
 05 11 2024  01 26  03.8484 19122.4 -14984.8 -38.0830 24294.2
 05 11 2024  01 27  03.8474 19122.4 -14984.8 -38.0830 24294.2
 05 11 2024  01 28  03.8469 19122.7 -14984.8 -38.0827 24294.5
 05 11 2024  01 29  03.8468 19123.0 -14984.9 -38.0823 24294.8
 05 11 2024  01 30  03.8466 19123.3 -14984.9 -38.0820 24295.0
 05 11 2024  01 31  03.8466 19123.5 -14985.0 -38.0818 24295.2
 05 11 2024  01 32  03.8465 19123.6 -14985.0 -38.0816 24295.3
 05 11 2024  01 33  03.8462 19123.7 -14985.0 -38.0815 24295.4
 05 11 2024  01 34  03.8459 19123.6 -14985.0 -38.0817 24295.3
 05 11 2024  01 35  03.8461 19123.8 -14985.0 -38.0814 24295.5
 05 11 2024  01 36  03.8461 19124.1 -14985.0 -38.0810 24295.7
 05 11 2024  01 37  03.8461 19124.5 -14985.0 -38.0803 24296.0
 05 11 2024  01 38  03.8456 19125.0 -14985.0 -38.0797 24296.4
 05 11 2024  01 39  03.8453 19125.1 -14985.0 -38.0795 24296.5
 05 11 2024  01 40  03.8451 19125.3 -14985.0 -38.0792 24296.7
 05 11 2024  01 41  03.8451 19125.7 -14985.0 -38.0786 24297.0
 05 11 2024  01 42  03.8451 19126.0 -14985.0 -38.0782 24297.2
 05 11 2024  01 43  03.8452 19126.1 -14984.9 -38.0780 24297.2
 05 11 2024  01 44  03.8452 19125.9 -14984.9 -38.0782 24297.1
 05 11 2024  01 45  03.8455 19125.6 -14984.9 -38.0786 24296.9
 05 11 2024  01 46  03.8455 19125.5 -14984.9 -38.0788 24296.7
 05 11 2024  01 47  03.8456 19125.5 -14984.9 -38.0788 24296.7
 05 11 2024  01 48  03.8456 19125.2 -14984.9 -38.0791 24296.5
 05 11 2024  01 49  03.8457 19124.9 -14984.9 -38.0796 24296.2
 05 11 2024  01 50  03.8456 19124.5 -14984.8 -38.0801 24295.9
 05 11 2024  01 51  03.8456 19124.3 -14984.8 -38.0804 24295.8
 05 11 2024  01 52  03.8455 19124.2 -14984.9 -38.0805 24295.7
 05 11 2024  01 53  03.8456 19124.3 -14984.8 -38.0804 24295.8
 05 11 2024  01 54  03.8454 19124.0 -14984.8 -38.0808 24295.5
 05 11 2024  01 55  03.8452 19123.7 -14984.9 -38.0813 24295.3
 05 11 2024  01 56  03.8448 19123.4 -14984.9 -38.0818 24295.1
 05 11 2024  01 57  03.8444 19123.2 -14984.9 -38.0821 24295.0
 05 11 2024  01 58  03.8444 19123.1 -14985.0 -38.0824 24294.9
 05 11 2024  01 59  03.8442 19123.0 -14985.0 -38.0825 24294.9
 05 11 2024  02 00  03.8440 19123.0 -14985.0 -38.0826 24294.8
 05 11 2024  02 01  03.8438 19122.9 -14985.1 -38.0828 24294.8
 05 11 2024  02 02  03.8438 19122.9 -14985.1 -38.0829 24294.8
 05 11 2024  02 03  03.8438 19122.8 -14985.1 -38.0830 24294.8
 05 11 2024  02 04  03.8439 19122.8 -14985.1 -38.0831 24294.7
 05 11 2024  02 05  03.8441 19122.8 -14985.1 -38.0831 24294.8
 05 11 2024  02 06  03.8443 19122.7 -14985.1 -38.0833 24294.7
 05 11 2024  02 07  03.8446 19122.7 -14985.1 -38.0833 24294.7
 05 11 2024  02 08  03.8448 19123.0 -14985.1 -38.0828 24294.9
 05 11 2024  02 09  03.8448 19123.0 -14985.1 -38.0828 24294.9
 05 11 2024  02 10  03.8449 19123.1 -14985.1 -38.0826 24295.0
 05 11 2024  02 11  03.8447 19123.3 -14985.1 -38.0822 24295.1
 05 11 2024  02 12  03.8444 19123.5 -14985.1 -38.0820 24295.3
 05 11 2024  02 13  03.8444 19123.7 -14985.1 -38.0818 24295.4
 05 11 2024  02 14  03.8439 19123.7 -14985.1 -38.0817 24295.4
 05 11 2024  02 15  03.8434 19123.9 -14985.1 -38.0815 24295.6
 05 11 2024  02 16  03.8431 19124.1 -14985.1 -38.0812 24295.8
 05 11 2024  02 17  03.8430 19124.3 -14985.1 -38.0809 24296.0
 05 11 2024  02 18  03.8429 19124.8 -14985.2 -38.0802 24296.4
 05 11 2024  02 19  03.8429 19125.2 -14985.2 -38.0797 24296.7
 05 11 2024  02 20  03.8434 19125.9 -14985.2 -38.0787 24297.2
 05 11 2024  02 21  03.8436 19126.5 -14985.2 -38.0778 24297.7
 05 11 2024  02 22  03.8430 19126.5 -14985.1 -38.0777 24297.7
 05 11 2024  02 23  03.8435 19127.1 -14985.2 -38.0768 24298.2
 05 11 2024  02 24  03.8437 19127.6 -14985.1 -38.0762 24298.5
 05 11 2024  02 25  03.8438 19127.8 -14985.1 -38.0758 24298.7
 05 11 2024  02 26  03.8445 19128.8 -14985.1 -38.0743 24299.5
 05 11 2024  02 27  03.8448 19130.0 -14985.0 -38.0724 24300.4
 05 11 2024  02 28  03.8447 19130.8 -14985.0 -38.0712 24300.9
 05 11 2024  02 29  03.8444 19131.2 -14984.9 -38.0704 24301.3
 05 11 2024  02 30  03.8441 19131.9 -14984.9 -38.0694 24301.8
 05 11 2024  02 31  03.8433 19132.0 -14984.9 -38.0693 24301.8
 05 11 2024  02 32  03.8423 19131.8 -14984.9 -38.0696 24301.7
 05 11 2024  02 33  03.8415 19131.6 -14985.0 -38.0701 24301.6
 05 11 2024  02 34  03.8410 19131.8 -14985.1 -38.0699 24301.8
 05 11 2024  02 35  03.8407 19132.0 -14985.1 -38.0697 24302.0
 05 11 2024  02 36  03.8398 19131.6 -14985.2 -38.0703 24301.7
 05 11 2024  02 37  03.8392 19131.7 -14985.2 -38.0704 24301.8
 05 11 2024  02 38  03.8392 19131.9 -14985.3 -38.0701 24302.0
 05 11 2024  02 39  03.8394 19132.2 -14985.3 -38.0698 24302.2
 05 11 2024  02 40  03.8395 19132.3 -14985.3 -38.0697 24302.4
 05 11 2024  02 41  03.8398 19132.4 -14985.3 -38.0695 24302.4
 05 11 2024  02 42  03.8398 19132.1 -14985.3 -38.0699 24302.1
 05 11 2024  02 43  03.8397 19131.6 -14985.3 -38.0706 24301.8
 05 11 2024  02 44  03.8396 19131.4 -14985.4 -38.0710 24301.7
 05 11 2024  02 45  03.8390 19130.9 -14985.4 -38.0718 24301.3
 05 11 2024  02 46  03.8385 19130.5 -14985.4 -38.0724 24301.0
 05 11 2024  02 47  03.8380 19130.2 -14985.5 -38.0730 24300.8
 05 11 2024  02 48  03.8379 19130.2 -14985.6 -38.0731 24300.9
 05 11 2024  02 49  03.8376 19129.8 -14985.6 -38.0738 24300.5
 05 11 2024  02 50  03.8367 19129.3 -14985.7 -38.0747 24300.2
 05 11 2024  02 51  03.8364 19128.9 -14985.7 -38.0754 24299.9
 05 11 2024  02 52  03.8363 19128.2 -14985.8 -38.0764 24299.4
 05 11 2024  02 53  03.8364 19128.2 -14985.8 -38.0765 24299.5
 05 11 2024  02 54  03.8367 19128.2 -14985.8 -38.0766 24299.4
 05 11 2024  02 55  03.8364 19128.0 -14985.9 -38.0769 24299.3
 05 11 2024  02 56  03.8370 19128.3 -14985.9 -38.0765 24299.6
 05 11 2024  02 57  03.8372 19128.3 -14985.9 -38.0765 24299.5
 05 11 2024  02 58  03.8375 19128.3 -14985.8 -38.0764 24299.5
 05 11 2024  02 59  03.8376 19128.3 -14985.8 -38.0764 24299.6
 05 11 2024  03 00  03.8375 19128.4 -14985.8 -38.0763 24299.6
 05 11 2024  03 01  03.8371 19128.6 -14985.8 -38.0760 24299.8
 05 11 2024  03 02  03.8368 19128.7 -14985.9 -38.0759 24299.8
 05 11 2024  03 03  03.8363 19128.6 -14985.9 -38.0760 24299.8
 05 11 2024  03 04  03.8357 19128.4 -14985.9 -38.0764 24299.6
 05 11 2024  03 05  03.8349 19127.9 -14986.0 -38.0772 24299.3
 05 11 2024  03 06  03.8343 19127.9 -14986.0 -38.0773 24299.3
 05 11 2024  03 07  03.8341 19128.0 -14986.1 -38.0773 24299.4
 05 11 2024  03 08  03.8338 19128.2 -14986.1 -38.0771 24299.6
 05 11 2024  03 09  03.8336 19128.4 -14986.1 -38.0769 24299.8
 05 11 2024  03 10  03.8332 19128.7 -14986.2 -38.0764 24300.1
 05 11 2024  03 11  03.8328 19129.0 -14986.2 -38.0761 24300.3
 05 11 2024  03 12  03.8326 19128.9 -14986.2 -38.0762 24300.3
 05 11 2024  03 13  03.8325 19129.0 -14986.3 -38.0762 24300.3
 05 11 2024  03 14  03.8324 19128.8 -14986.3 -38.0766 24300.2
 05 11 2024  03 15  03.8323 19128.6 -14986.3 -38.0769 24300.1
 05 11 2024  03 16  03.8323 19128.5 -14986.3 -38.0770 24300.0
 05 11 2024  03 17  03.8320 19128.4 -14986.3 -38.0772 24300.0
 05 11 2024  03 18  03.8318 19128.3 -14986.4 -38.0774 24299.9
 05 11 2024  03 19  03.8318 19128.4 -14986.4 -38.0774 24299.9
 05 11 2024  03 20  03.8318 19128.5 -14986.4 -38.0772 24300.0
 05 11 2024  03 21  03.8320 19128.7 -14986.4 -38.0769 24300.2
 05 11 2024  03 22  03.8321 19128.8 -14986.4 -38.0767 24300.3
 05 11 2024  03 23  03.8321 19129.2 -14986.4 -38.0762 24300.6
 05 11 2024  03 24  03.8322 19129.6 -14986.4 -38.0755 24300.9
 05 11 2024  03 25  03.8322 19129.9 -14986.3 -38.0751 24301.1
 05 11 2024  03 26  03.8322 19130.0 -14986.3 -38.0748 24301.2
 05 11 2024  03 27  03.8320 19129.9 -14986.3 -38.0750 24301.1
 05 11 2024  03 28  03.8319 19129.7 -14986.3 -38.0753 24300.9
 05 11 2024  03 29  03.8319 19129.5 -14986.3 -38.0756 24300.7
 05 11 2024  03 30  03.8319 19129.3 -14986.3 -38.0758 24300.7
 05 11 2024  03 31  03.8318 19129.4 -14986.3 -38.0758 24300.7
 05 11 2024  03 32  03.8317 19129.4 -14986.4 -38.0757 24300.7
 05 11 2024  03 33  03.8316 19129.4 -14986.4 -38.0757 24300.7
 05 11 2024  03 34  03.8314 19129.4 -14986.4 -38.0757 24300.7
 05 11 2024  03 35  03.8312 19129.4 -14986.4 -38.0758 24300.7
 05 11 2024  03 36  03.8309 19129.3 -14986.4 -38.0759 24300.7
 05 11 2024  03 37  03.8304 19129.2 -14986.4 -38.0761 24300.6
 05 11 2024  03 38  03.8302 19129.3 -14986.4 -38.0761 24300.7
 05 11 2024  03 39  03.8300 19129.5 -14986.5 -38.0758 24300.9
 05 11 2024  03 40  03.8296 19129.8 -14986.5 -38.0754 24301.1
 05 11 2024  03 41  03.8293 19129.9 -14986.5 -38.0753 24301.2
 05 11 2024  03 42  03.8291 19130.0 -14986.5 -38.0752 24301.3
 05 11 2024  03 43  03.8288 19130.1 -14986.5 -38.0751 24301.4
 05 11 2024  03 44  03.8288 19130.2 -14986.6 -38.0749 24301.5
 05 11 2024  03 45  03.8288 19130.4 -14986.6 -38.0747 24301.7
 05 11 2024  03 46  03.8286 19130.6 -14986.6 -38.0744 24301.8
 05 11 2024  03 47  03.8286 19130.8 -14986.6 -38.0742 24302.0
 05 11 2024  03 48  03.8287 19131.1 -14986.6 -38.0737 24302.2
 05 11 2024  03 49  03.8284 19131.2 -14986.6 -38.0736 24302.3
 05 11 2024  03 50  03.8280 19130.9 -14986.6 -38.0740 24302.0
 05 11 2024  03 51  03.8281 19130.8 -14986.6 -38.0742 24302.0
 05 11 2024  03 52  03.8282 19130.7 -14986.6 -38.0743 24301.9
 05 11 2024  03 53  03.8286 19130.6 -14986.6 -38.0744 24301.9
 05 11 2024  03 54  03.8288 19130.5 -14986.6 -38.0746 24301.8
 05 11 2024  03 55  03.8288 19130.4 -14986.6 -38.0747 24301.7
 05 11 2024  03 56  03.8287 19130.3 -14986.6 -38.0749 24301.6
 05 11 2024  03 57  03.8284 19130.2 -14986.6 -38.0749 24301.5
 05 11 2024  03 58  03.8282 19130.2 -14986.6 -38.0750 24301.4
 05 11 2024  03 59  03.8281 19130.2 -14986.5 -38.0750 24301.4
 05 11 2024  04 00  03.8277 19129.9 -14986.5 -38.0754 24301.2
 05 11 2024  04 01  03.8272 19129.8 -14986.5 -38.0755 24301.1
 05 11 2024  04 02  03.8267 19129.6 -14986.5 -38.0758 24301.0
 05 11 2024  04 03  03.8261 19129.4 -14986.6 -38.0761 24300.9
 05 11 2024  04 04  03.8257 19129.3 -14986.6 -38.0764 24300.8
 05 11 2024  04 05  03.8256 19129.2 -14986.6 -38.0765 24300.8
 05 11 2024  04 06  03.8255 19129.2 -14986.7 -38.0767 24300.7
 05 11 2024  04 07  03.8254 19129.4 -14986.7 -38.0763 24300.9
 05 11 2024  04 08  03.8252 19129.4 -14986.7 -38.0764 24300.9
 05 11 2024  04 09  03.8250 19129.4 -14986.7 -38.0764 24300.9
 05 11 2024  04 10  03.8249 19129.4 -14986.7 -38.0764 24300.9
 05 11 2024  04 11  03.8244 19129.2 -14986.7 -38.0767 24300.7
 05 11 2024  04 12  03.8241 19129.4 -14986.7 -38.0764 24300.9
 05 11 2024  04 13  03.8239 19129.7 -14986.7 -38.0760 24301.2
 05 11 2024  04 14  03.8237 19130.0 -14986.7 -38.0756 24301.4
 05 11 2024  04 15  03.8233 19129.7 -14986.7 -38.0760 24301.2
 05 11 2024  04 16  03.8231 19129.7 -14986.8 -38.0762 24301.2
 05 11 2024  04 17  03.8225 19129.4 -14986.8 -38.0766 24301.0
 05 11 2024  04 18  03.8220 19129.2 -14986.8 -38.0769 24300.9
 05 11 2024  04 19  03.8216 19129.0 -14986.9 -38.0774 24300.7
 05 11 2024  04 20  03.8212 19128.9 -14987.0 -38.0776 24300.7
 05 11 2024  04 21  03.8212 19128.7 -14987.0 -38.0779 24300.6
 05 11 2024  04 22  03.8213 19128.6 -14987.0 -38.0781 24300.5
 05 11 2024  04 23  03.8215 19128.6 -14987.0 -38.0783 24300.5
 05 11 2024  04 24  03.8216 19128.5 -14987.1 -38.0784 24300.5
 05 11 2024  04 25  03.8216 19128.4 -14987.1 -38.0785 24300.4
 05 11 2024  04 26  03.8218 19128.2 -14987.1 -38.0789 24300.2
 05 11 2024  04 27  03.8219 19128.0 -14987.1 -38.0791 24300.1
 05 11 2024  04 28  03.8220 19128.0 -14987.1 -38.0791 24300.0
 05 11 2024  04 29  03.8219 19128.0 -14987.0 -38.0791 24300.0
 05 11 2024  04 30  03.8219 19128.0 -14987.0 -38.0791 24300.0
 05 11 2024  04 31  03.8218 19128.0 -14987.0 -38.0790 24300.0
 05 11 2024  04 32  03.8219 19128.0 -14987.0 -38.0790 24300.1
 05 11 2024  04 33  03.8219 19128.1 -14987.0 -38.0789 24300.1
 05 11 2024  04 34  03.8220 19128.2 -14987.0 -38.0787 24300.2
 05 11 2024  04 35  03.8220 19128.4 -14987.0 -38.0784 24300.3
 05 11 2024  04 36  03.8218 19128.6 -14987.0 -38.0781 24300.4
 05 11 2024  04 37  03.8216 19128.6 -14986.9 -38.0780 24300.4
 05 11 2024  04 38  03.8213 19128.4 -14987.0 -38.0783 24300.3
 05 11 2024  04 39  03.8210 19128.3 -14987.0 -38.0786 24300.2
 05 11 2024  04 40  03.8208 19128.2 -14987.0 -38.0787 24300.2
 05 11 2024  04 41  03.8207 19128.1 -14987.0 -38.0788 24300.1
 05 11 2024  04 42  03.8207 19128.0 -14987.0 -38.0790 24300.0
 05 11 2024  04 43  03.8206 19128.0 -14987.0 -38.0790 24300.1
 05 11 2024  04 44  03.8203 19128.1 -14987.0 -38.0790 24300.1
 05 11 2024  04 45  03.8200 19128.1 -14987.0 -38.0789 24300.1
 05 11 2024  04 46  03.8199 19128.2 -14987.0 -38.0789 24300.2
 05 11 2024  04 47  03.8199 19128.1 -14987.1 -38.0790 24300.2
 05 11 2024  04 48  03.8202 19128.2 -14987.1 -38.0788 24300.2
 05 11 2024  04 49  03.8202 19128.3 -14987.1 -38.0787 24300.2
 05 11 2024  04 50  03.8200 19128.2 -14987.1 -38.0787 24300.2
 05 11 2024  04 51  03.8199 19128.4 -14987.1 -38.0785 24300.4
 05 11 2024  04 52  03.8198 19128.6 -14987.0 -38.0782 24300.5
 05 11 2024  04 53  03.8197 19128.8 -14987.0 -38.0779 24300.7
 05 11 2024  04 54  03.8195 19129.0 -14987.0 -38.0777 24300.8
 05 11 2024  04 55  03.8193 19128.8 -14987.0 -38.0779 24300.7
 05 11 2024  04 56  03.8191 19128.6 -14987.0 -38.0782 24300.5
 05 11 2024  04 57  03.8189 19128.3 -14987.0 -38.0786 24300.3
 05 11 2024  04 58  03.8185 19128.2 -14987.1 -38.0788 24300.2
 05 11 2024  04 59  03.8183 19128.2 -14987.1 -38.0788 24300.2
 05 11 2024  05 00  03.8179 19128.1 -14987.1 -38.0790 24300.1
 05 11 2024  05 01  03.8178 19128.0 -14987.1 -38.0792 24300.1
 05 11 2024  05 02  03.8179 19128.0 -14987.1 -38.0792 24300.0
 05 11 2024  05 03  03.8180 19128.0 -14987.1 -38.0792 24300.0
 05 11 2024  05 04  03.8180 19128.0 -14987.1 -38.0791 24300.0
 05 11 2024  05 05  03.8180 19128.1 -14987.0 -38.0790 24300.1
 05 11 2024  05 06  03.8179 19128.1 -14987.0 -38.0789 24300.1
 05 11 2024  05 07  03.8178 19128.0 -14987.0 -38.0790 24300.0
 05 11 2024  05 08  03.8177 19128.0 -14987.0 -38.0790 24300.0
 05 11 2024  05 09  03.8174 19128.1 -14987.0 -38.0789 24300.1
 05 11 2024  05 10  03.8171 19128.1 -14987.0 -38.0788 24300.1
 05 11 2024  05 11  03.8168 19128.1 -14986.9 -38.0787 24300.1
 05 11 2024  05 12  03.8165 19128.0 -14986.9 -38.0788 24300.0
 05 11 2024  05 13  03.8163 19128.0 -14986.9 -38.0788 24299.9
 05 11 2024  05 14  03.8161 19128.0 -14986.9 -38.0788 24300.0
 05 11 2024  05 15  03.8160 19128.1 -14986.9 -38.0786 24300.1
 05 11 2024  05 16  03.8159 19128.2 -14986.9 -38.0785 24300.1
 05 11 2024  05 17  03.8158 19128.4 -14986.9 -38.0783 24300.2
 05 11 2024  05 18  03.8160 19128.7 -14986.9 -38.0778 24300.5
 05 11 2024  05 19  03.8160 19128.9 -14986.9 -38.0774 24300.6
 05 11 2024  05 20  03.8160 19129.1 -14986.8 -38.0771 24300.8
 05 11 2024  05 21  03.8160 19129.2 -14986.9 -38.0771 24300.8
 05 11 2024  05 22  03.8159 19128.8 -14986.8 -38.0775 24300.6
 05 11 2024  05 23  03.8158 19128.4 -14986.8 -38.0781 24300.2
 05 11 2024  05 24  03.8161 19128.1 -14986.8 -38.0785 24300.0
 05 11 2024  05 25  03.8164 19127.9 -14986.8 -38.0788 24299.8
 05 11 2024  05 26  03.8163 19127.8 -14986.8 -38.0790 24299.7
 05 11 2024  05 27  03.8164 19128.0 -14986.8 -38.0787 24299.9
 05 11 2024  05 28  03.8164 19128.3 -14986.8 -38.0783 24300.1
 05 11 2024  05 29  03.8160 19128.5 -14986.8 -38.0780 24300.3
 05 11 2024  05 30  03.8157 19128.8 -14986.8 -38.0775 24300.6
 05 11 2024  05 31  03.8156 19129.0 -14986.9 -38.0772 24300.7
 05 11 2024  05 32  03.8154 19129.0 -14986.9 -38.0773 24300.7
 05 11 2024  05 33  03.8154 19128.8 -14986.9 -38.0777 24300.6
 05 11 2024  05 34  03.8155 19128.5 -14986.9 -38.0781 24300.4
 05 11 2024  05 35  03.8154 19128.2 -14987.0 -38.0787 24300.1
 05 11 2024  05 36  03.8153 19127.7 -14987.0 -38.0794 24299.8
 05 11 2024  05 37  03.8152 19127.3 -14987.0 -38.0801 24299.5
 05 11 2024  05 38  03.8151 19127.0 -14987.1 -38.0806 24299.2
 05 11 2024  05 39  03.8150 19126.8 -14987.1 -38.0808 24299.1
 05 11 2024  05 40  03.8147 19126.7 -14987.1 -38.0810 24299.1
 05 11 2024  05 41  03.8142 19126.7 -14987.1 -38.0811 24299.1
 05 11 2024  05 42  03.8136 19126.7 -14987.2 -38.0813 24299.1
 05 11 2024  05 43  03.8133 19126.7 -14987.3 -38.0814 24299.2
 05 11 2024  05 44  03.8129 19126.7 -14987.3 -38.0814 24299.2
 05 11 2024  05 45  03.8127 19126.8 -14987.3 -38.0813 24299.3
 05 11 2024  05 46  03.8125 19126.7 -14987.4 -38.0816 24299.2
 05 11 2024  05 47  03.8125 19126.6 -14987.4 -38.0817 24299.2
 05 11 2024  05 48  03.8126 19126.6 -14987.4 -38.0818 24299.2
 05 11 2024  05 49  03.8128 19126.6 -14987.4 -38.0819 24299.1
 05 11 2024  05 50  03.8131 19126.6 -14987.4 -38.0819 24299.2
 05 11 2024  05 51  03.8132 19126.5 -14987.4 -38.0820 24299.1
 05 11 2024  05 52  03.8134 19126.6 -14987.5 -38.0819 24299.2
 05 11 2024  05 53  03.8138 19126.8 -14987.5 -38.0816 24299.4
 05 11 2024  05 54  03.8138 19127.1 -14987.5 -38.0812 24299.6
 05 11 2024  05 55  03.8136 19127.4 -14987.5 -38.0808 24299.8
 05 11 2024  05 56  03.8131 19127.7 -14987.5 -38.0804 24300.1
 05 11 2024  05 57  03.8126 19128.0 -14987.5 -38.0801 24300.3
 05 11 2024  05 58  03.8121 19128.2 -14987.6 -38.0798 24300.5
 05 11 2024  05 59  03.8116 19128.4 -14987.6 -38.0796 24300.7
 05 11 2024  06 00  03.8112 19128.6 -14987.7 -38.0795 24300.9
 05 11 2024  06 01  03.8110 19128.8 -14987.8 -38.0793 24301.1
 05 11 2024  06 02  03.8110 19128.8 -14987.8 -38.0794 24301.2
 05 11 2024  06 03  03.8109 19128.8 -14987.9 -38.0795 24301.2
 05 11 2024  06 04  03.8112 19128.7 -14988.0 -38.0797 24301.2
 05 11 2024  06 05  03.8116 19128.6 -14988.0 -38.0800 24301.2
 05 11 2024  06 06  03.8120 19128.5 -14988.0 -38.0801 24301.1
 05 11 2024  06 07  03.8120 19128.4 -14988.1 -38.0803 24301.0
 05 11 2024  06 08  03.8119 19128.4 -14988.1 -38.0805 24301.0
 05 11 2024  06 09  03.8116 19128.3 -14988.1 -38.0807 24300.9
 05 11 2024  06 10  03.8113 19128.1 -14988.2 -38.0811 24300.8
 05 11 2024  06 11  03.8108 19127.9 -14988.2 -38.0814 24300.7
 05 11 2024  06 12  03.8105 19127.8 -14988.3 -38.0816 24300.7
 05 11 2024  06 13  03.8100 19127.7 -14988.3 -38.0819 24300.6
 05 11 2024  06 14  03.8093 19127.7 -14988.4 -38.0820 24300.6
 05 11 2024  06 15  03.8090 19127.7 -14988.4 -38.0820 24300.7
 05 11 2024  06 16  03.8086 19127.9 -14988.5 -38.0819 24300.8
 05 11 2024  06 17  03.8081 19127.9 -14988.5 -38.0819 24300.9
 05 11 2024  06 18  03.8076 19128.1 -14988.6 -38.0818 24301.0
 05 11 2024  06 19  03.8072 19128.2 -14988.6 -38.0817 24301.2
 05 11 2024  06 20  03.8070 19128.4 -14988.7 -38.0816 24301.4
 05 11 2024  06 21  03.8069 19128.4 -14988.7 -38.0816 24301.4
 05 11 2024  06 22  03.8068 19128.2 -14988.8 -38.0819 24301.3
 05 11 2024  06 23  03.8067 19127.9 -14988.8 -38.0824 24301.1
 05 11 2024  06 24  03.8066 19127.8 -14988.8 -38.0827 24300.9
 05 11 2024  06 25  03.8066 19127.8 -14988.8 -38.0827 24300.9
 05 11 2024  06 26  03.8061 19128.0 -14988.8 -38.0824 24301.2
 05 11 2024  06 27  03.8058 19128.4 -14988.8 -38.0818 24301.5
 05 11 2024  06 28  03.8055 19128.8 -14988.9 -38.0812 24301.8
 05 11 2024  06 29  03.8056 19128.9 -14988.9 -38.0813 24301.8
 05 11 2024  06 30  03.8059 19128.7 -14988.9 -38.0816 24301.7
 05 11 2024  06 31  03.8064 19128.5 -14988.9 -38.0819 24301.6
 05 11 2024  06 32  03.8066 19128.2 -14988.9 -38.0822 24301.3
 05 11 2024  06 33  03.8065 19127.9 -14988.9 -38.0827 24301.1
 05 11 2024  06 34  03.8061 19127.7 -14988.9 -38.0830 24300.9
 05 11 2024  06 35  03.8055 19127.5 -14988.9 -38.0833 24300.7
 05 11 2024  06 36  03.8050 19127.3 -14988.9 -38.0835 24300.7
 05 11 2024  06 37  03.8045 19127.3 -14988.9 -38.0835 24300.7
 05 11 2024  06 38  03.8041 19127.2 -14988.9 -38.0837 24300.6
 05 11 2024  06 39  03.8040 19127.2 -14989.0 -38.0838 24300.6
 05 11 2024  06 40  03.8043 19127.2 -14989.0 -38.0838 24300.6
 05 11 2024  06 41  03.8045 19127.1 -14989.0 -38.0840 24300.5
 05 11 2024  06 42  03.8044 19127.1 -14989.0 -38.0840 24300.5
 05 11 2024  06 43  03.8040 19127.2 -14989.0 -38.0838 24300.6
 05 11 2024  06 44  03.8030 19127.7 -14989.0 -38.0832 24301.0
 05 11 2024  06 45  03.8023 19128.3 -14989.0 -38.0824 24301.5
 05 11 2024  06 46  03.8019 19128.9 -14989.1 -38.0815 24302.0
 05 11 2024  06 47  03.8020 19129.4 -14989.1 -38.0809 24302.4
 05 11 2024  06 48  03.8020 19129.5 -14989.1 -38.0806 24302.5
 05 11 2024  06 49  03.8028 19129.7 -14989.1 -38.0804 24302.6
 05 11 2024  06 50  03.8034 19129.7 -14989.1 -38.0804 24302.6
 05 11 2024  06 51  03.8035 19129.7 -14989.0 -38.0804 24302.6
 05 11 2024  06 52  03.8035 19129.8 -14989.0 -38.0802 24302.7
 05 11 2024  06 53  03.8038 19129.8 -14989.0 -38.0801 24302.7
 05 11 2024  06 54  03.8042 19129.9 -14989.0 -38.0800 24302.7
 05 11 2024  06 55  03.8044 19129.8 -14989.0 -38.0801 24302.7
 05 11 2024  06 56  03.8048 19129.8 -14989.0 -38.0800 24302.7
 05 11 2024  06 57  03.8050 19129.7 -14989.0 -38.0801 24302.6
 05 11 2024  06 58  03.8048 19129.6 -14989.0 -38.0803 24302.5
 05 11 2024  06 59  03.8046 19129.5 -14989.0 -38.0805 24302.5
 05 11 2024  07 00  03.8045 19129.5 -14989.0 -38.0806 24302.4
 05 11 2024  07 01  03.8044 19129.4 -14989.0 -38.0808 24302.3
 05 11 2024  07 02  03.8039 19129.1 -14989.1 -38.0812 24302.1
 05 11 2024  07 03  03.8038 19129.0 -14989.1 -38.0815 24302.1
 05 11 2024  07 04  03.8036 19128.6 -14989.1 -38.0821 24301.8
 05 11 2024  07 05  03.8031 19128.4 -14989.2 -38.0825 24301.7
 05 11 2024  07 06  03.8033 19128.4 -14989.2 -38.0825 24301.7
 05 11 2024  07 07  03.8032 19128.3 -14989.3 -38.0827 24301.7
 05 11 2024  07 08  03.8025 19128.3 -14989.3 -38.0829 24301.6
 05 11 2024  07 09  03.8019 19128.4 -14989.3 -38.0828 24301.7
 05 11 2024  07 10  03.8011 19128.4 -14989.4 -38.0828 24301.8
 05 11 2024  07 11  03.8007 19128.3 -14989.4 -38.0830 24301.7
 05 11 2024  07 12  03.8004 19128.2 -14989.4 -38.0832 24301.6
 05 11 2024  07 13  03.8005 19128.1 -14989.4 -38.0834 24301.6
 05 11 2024  07 14  03.8004 19127.8 -14989.5 -38.0839 24301.3
 05 11 2024  07 15  03.8004 19127.5 -14989.5 -38.0843 24301.2
 05 11 2024  07 16  03.8004 19127.2 -14989.5 -38.0847 24300.9
 05 11 2024  07 17  03.7997 19126.7 -14989.5 -38.0855 24300.5
 05 11 2024  07 18  03.7990 19126.5 -14989.5 -38.0858 24300.4
 05 11 2024  07 19  03.7982 19126.4 -14989.5 -38.0860 24300.3
 05 11 2024  07 20  03.7975 19126.5 -14989.6 -38.0860 24300.4
 05 11 2024  07 21  03.7971 19126.5 -14989.6 -38.0859 24300.4
 05 11 2024  07 22  03.7962 19126.4 -14989.6 -38.0861 24300.3
 05 11 2024  07 23  03.7957 19126.3 -14989.6 -38.0864 24300.3
 05 11 2024  07 24  03.7953 19126.2 -14989.7 -38.0866 24300.3
 05 11 2024  07 25  03.7951 19126.3 -14989.7 -38.0865 24300.4
 05 11 2024  07 26  03.7948 19126.3 -14989.7 -38.0865 24300.4
 05 11 2024  07 27  03.7944 19126.4 -14989.8 -38.0865 24300.4
 05 11 2024  07 28  03.7941 19126.3 -14989.8 -38.0866 24300.4
 05 11 2024  07 29  03.7938 19126.4 -14989.8 -38.0866 24300.5
 05 11 2024  07 30  03.7939 19126.2 -14989.9 -38.0869 24300.3
 05 11 2024  07 31  03.7943 19126.0 -14989.8 -38.0872 24300.2
 05 11 2024  07 32  03.7961 19125.9 -14989.8 -38.0873 24300.1
 05 11 2024  07 33  03.7977 19125.6 -14989.7 -38.0875 24299.8
 05 11 2024  07 34  03.7983 19125.4 -14989.7 -38.0878 24299.6
 05 11 2024  07 35  03.7980 19125.3 -14989.6 -38.0879 24299.5
 05 11 2024  07 36  03.7979 19125.5 -14989.6 -38.0874 24299.7
 05 11 2024  07 37  03.7972 19125.6 -14989.6 -38.0873 24299.7
 05 11 2024  07 38  03.7963 19125.7 -14989.5 -38.0871 24299.7
 05 11 2024  07 39  03.7953 19125.6 -14989.5 -38.0871 24299.7
 05 11 2024  07 40  03.7945 19125.6 -14989.5 -38.0871 24299.7
 05 11 2024  07 41  03.7941 19125.7 -14989.5 -38.0871 24299.8
 05 11 2024  07 42  03.7939 19125.6 -14989.5 -38.0871 24299.7
 05 11 2024  07 43  03.7934 19125.7 -14989.5 -38.0871 24299.7
 05 11 2024  07 44  03.7930 19125.7 -14989.6 -38.0871 24299.8
 05 11 2024  07 45  03.7933 19126.2 -14989.6 -38.0864 24300.1
 05 11 2024  07 46  03.7935 19126.3 -14989.5 -38.0862 24300.2
 05 11 2024  07 47  03.7937 19126.3 -14989.5 -38.0860 24300.2
 05 11 2024  07 48  03.7934 19125.8 -14989.4 -38.0868 24299.8
 05 11 2024  07 49  03.7937 19125.4 -14989.4 -38.0873 24299.4
 05 11 2024  07 50  03.7941 19125.5 -14989.4 -38.0872 24299.5
 05 11 2024  07 51  03.7944 19125.3 -14989.4 -38.0873 24299.4
 05 11 2024  07 52  03.7956 19125.6 -14989.3 -38.0868 24299.6
 05 11 2024  07 53  03.7957 19125.5 -14989.2 -38.0867 24299.4
 05 11 2024  07 54  03.7959 19125.4 -14989.1 -38.0868 24299.3
 05 11 2024  07 55  03.7958 19125.2 -14989.1 -38.0870 24299.1
 05 11 2024  07 56  03.7963 19125.4 -14989.0 -38.0865 24299.2
 05 11 2024  07 57  03.7965 19125.5 -14988.9 -38.0863 24299.2
 05 11 2024  07 58  03.7966 19125.4 -14988.8 -38.0862 24299.1
 05 11 2024  07 59  03.7966 19125.3 -14988.8 -38.0863 24299.0
 05 11 2024  08 00  03.7970 19125.2 -14988.7 -38.0863 24298.8
 05 11 2024  08 01  03.7975 19125.2 -14988.6 -38.0861 24298.8
 05 11 2024  08 02  03.7976 19125.3 -14988.5 -38.0857 24298.8
 05 11 2024  08 03  03.7977 19125.7 -14988.4 -38.0849 24299.0
 05 11 2024  08 04  03.7986 19125.7 -14988.2 -38.0846 24299.0
 05 11 2024  08 05  03.7992 19126.0 -14988.2 -38.0840 24299.2
 05 11 2024  08 06  03.8002 19126.5 -14988.0 -38.0831 24299.5
 05 11 2024  08 07  03.8009 19126.6 -14987.8 -38.0827 24299.4
 05 11 2024  08 08  03.8009 19126.5 -14987.7 -38.0826 24299.2
 05 11 2024  08 09  03.8013 19126.6 -14987.6 -38.0822 24299.3
 05 11 2024  08 10  03.8018 19126.8 -14987.5 -38.0817 24299.4
 05 11 2024  08 11  03.8023 19127.3 -14987.4 -38.0808 24299.7
 05 11 2024  08 12  03.8027 19127.3 -14987.3 -38.0806 24299.6
 05 11 2024  08 13  03.8024 19127.3 -14987.2 -38.0803 24299.6
 05 11 2024  08 14  03.8031 19127.9 -14987.1 -38.0793 24300.0
 05 11 2024  08 15  03.8035 19128.6 -14987.0 -38.0781 24300.4
 05 11 2024  08 16  03.8043 19128.9 -14986.8 -38.0774 24300.5
 05 11 2024  08 17  03.8045 19129.5 -14986.7 -38.0762 24301.0
 05 11 2024  08 18  03.8053 19130.3 -14986.5 -38.0748 24301.5
 05 11 2024  08 19  03.8065 19131.1 -14986.3 -38.0732 24302.1
 05 11 2024  08 20  03.8081 19131.9 -14986.1 -38.0717 24302.5
 05 11 2024  08 21  03.8096 19132.1 -14985.9 -38.0710 24302.6
 05 11 2024  08 22  03.8110 19132.3 -14985.7 -38.0704 24302.6
 05 11 2024  08 23  03.8116 19132.0 -14985.5 -38.0705 24302.2
 05 11 2024  08 24  03.8122 19131.9 -14985.4 -38.0704 24302.1
 05 11 2024  08 25  03.8129 19132.6 -14985.2 -38.0691 24302.5
 05 11 2024  08 26  03.8130 19133.2 -14985.1 -38.0680 24302.9
 05 11 2024  08 27  03.8131 19133.7 -14985.0 -38.0670 24303.3
 05 11 2024  08 28  03.8129 19134.5 -14984.9 -38.0656 24303.8
 05 11 2024  08 29  03.8132 19135.2 -14984.8 -38.0645 24304.3
 05 11 2024  08 30  03.8135 19135.7 -14984.7 -38.0635 24304.7
 05 11 2024  08 31  03.8133 19136.0 -14984.7 -38.0631 24304.8
 05 11 2024  08 32  03.8127 19136.0 -14984.6 -38.0630 24304.8
 05 11 2024  08 33  03.8125 19136.3 -14984.5 -38.0624 24305.0
 05 11 2024  08 34  03.8125 19136.6 -14984.5 -38.0618 24305.2
 05 11 2024  08 35  03.8130 19136.9 -14984.4 -38.0613 24305.4
 05 11 2024  08 36  03.8134 19137.0 -14984.3 -38.0609 24305.5
 05 11 2024  08 37  03.8137 19137.3 -14984.3 -38.0604 24305.6
 05 11 2024  08 38  03.8141 19137.7 -14984.2 -38.0598 24305.9
 05 11 2024  08 39  03.8144 19138.1 -14984.2 -38.0592 24306.2
 05 11 2024  08 40  03.8145 19138.1 -14984.1 -38.0590 24306.2
 05 11 2024  08 41  03.8142 19138.4 -14984.1 -38.0584 24306.4
 05 11 2024  08 42  03.8136 19138.7 -14984.1 -38.0581 24306.6
 05 11 2024  08 43  03.8131 19138.7 -14984.1 -38.0580 24306.7
 05 11 2024  08 44  03.8126 19138.6 -14984.1 -38.0581 24306.6
 05 11 2024  08 45  03.8122 19138.6 -14984.1 -38.0583 24306.5
 05 11 2024  08 46  03.8120 19138.4 -14984.1 -38.0584 24306.4
 05 11 2024  08 47  03.8117 19138.2 -14984.1 -38.0587 24306.3
 05 11 2024  08 48  03.8119 19138.1 -14984.1 -38.0590 24306.2
 05 11 2024  08 49  03.8117 19138.0 -14984.1 -38.0591 24306.1
 05 11 2024  08 50  03.8117 19137.8 -14984.1 -38.0595 24306.0
 05 11 2024  08 51  03.8111 19137.4 -14984.2 -38.0601 24305.7
 05 11 2024  08 52  03.8104 19137.5 -14984.3 -38.0601 24305.8
 05 11 2024  08 53  03.8102 19137.6 -14984.3 -38.0600 24305.9
 05 11 2024  08 54  03.8100 19137.5 -14984.3 -38.0602 24305.8
 05 11 2024  08 55  03.8103 19137.4 -14984.3 -38.0602 24305.7
 05 11 2024  08 56  03.8105 19137.2 -14984.2 -38.0605 24305.6
 05 11 2024  08 57  03.8108 19137.4 -14984.2 -38.0602 24305.7
 05 11 2024  08 58  03.8110 19137.5 -14984.2 -38.0600 24305.8
 05 11 2024  08 59  03.8111 19137.6 -14984.2 -38.0599 24305.8
 05 11 2024  09 00  03.8120 19137.9 -14984.2 -38.0594 24306.0
 05 11 2024  09 01  03.8128 19138.2 -14984.1 -38.0588 24306.3
 05 11 2024  09 02  03.8132 19138.5 -14984.0 -38.0583 24306.4
 05 11 2024  09 03  03.8131 19138.8 -14984.0 -38.0578 24306.6
 05 11 2024  09 04  03.8131 19139.0 -14984.0 -38.0576 24306.8
 05 11 2024  09 05  03.8132 19139.2 -14984.0 -38.0572 24307.0
 05 11 2024  09 06  03.8131 19139.4 -14984.0 -38.0569 24307.1
 05 11 2024  09 07  03.8131 19139.4 -14984.0 -38.0569 24307.1
 05 11 2024  09 08  03.8131 19139.3 -14984.0 -38.0570 24307.1
 05 11 2024  09 09  03.8127 19139.3 -14984.0 -38.0570 24307.0
 05 11 2024  09 10  03.8127 19139.4 -14984.0 -38.0568 24307.1
 05 11 2024  09 11  03.8125 19139.6 -14984.0 -38.0566 24307.2
 05 11 2024  09 12  03.8123 19139.8 -14984.0 -38.0562 24307.4
 05 11 2024  09 13  03.8122 19140.0 -14984.0 -38.0560 24307.5
 05 11 2024  09 14  03.8122 19139.8 -14984.0 -38.0563 24307.4
 05 11 2024  09 15  03.8122 19139.7 -14984.0 -38.0565 24307.3
 05 11 2024  09 16  03.8122 19139.8 -14984.0 -38.0564 24307.4
 05 11 2024  09 17  03.8122 19139.7 -14984.0 -38.0565 24307.4
 05 11 2024  09 18  03.8122 19139.9 -14984.1 -38.0563 24307.5
 05 11 2024  09 19  03.8123 19140.3 -14984.0 -38.0557 24307.9
 05 11 2024  09 20  03.8126 19140.5 -14984.0 -38.0553 24308.0
 05 11 2024  09 21  03.8128 19140.6 -14984.0 -38.0552 24308.1
 05 11 2024  09 22  03.8128 19140.5 -14984.0 -38.0552 24308.0
 05 11 2024  09 23  03.8127 19140.4 -14984.0 -38.0555 24307.9
 05 11 2024  09 24  03.8124 19140.2 -14984.1 -38.0559 24307.8
 05 11 2024  09 25  03.8122 19139.9 -14984.2 -38.0564 24307.7
 05 11 2024  09 26  03.8119 19139.9 -14984.3 -38.0567 24307.7
 05 11 2024  09 27  03.8116 19139.9 -14984.3 -38.0568 24307.7
 05 11 2024  09 28  03.8122 19140.0 -14984.4 -38.0567 24307.8
 05 11 2024  09 29  03.8124 19140.1 -14984.4 -38.0566 24307.9
 05 11 2024  09 30  03.8132 19140.2 -14984.4 -38.0565 24308.1
 05 11 2024  09 31  03.8139 19140.3 -14984.4 -38.0564 24308.1
 05 11 2024  09 32  03.8145 19140.4 -14984.4 -38.0562 24308.2
 05 11 2024  09 33  03.8151 19140.6 -14984.4 -38.0559 24308.3
 05 11 2024  09 34  03.8151 19140.7 -14984.4 -38.0557 24308.4
 05 11 2024  09 35  03.8157 19141.1 -14984.4 -38.0552 24308.7
 05 11 2024  09 36  03.8161 19141.5 -14984.4 -38.0546 24309.1
 05 11 2024  09 37  03.8159 19141.8 -14984.4 -38.0541 24309.3
 05 11 2024  09 38  03.8154 19141.9 -14984.5 -38.0542 24309.4
 05 11 2024  09 39  03.8154 19142.0 -14984.6 -38.0541 24309.5
 05 11 2024  09 40  03.8164 19142.5 -14984.6 -38.0534 24309.9
 05 11 2024  09 41  03.8176 19142.9 -14984.5 -38.0527 24310.3
 05 11 2024  09 42  03.8177 19143.2 -14984.6 -38.0524 24310.5
 05 11 2024  09 43  03.8164 19142.9 -14984.7 -38.0530 24310.3
 05 11 2024  09 44  03.8157 19142.9 -14984.8 -38.0533 24310.4
 05 11 2024  09 45  03.8151 19143.3 -14985.0 -38.0531 24310.8
 05 11 2024  09 46  03.8145 19143.9 -14985.1 -38.0524 24311.3
 05 11 2024  09 47  03.8148 19144.6 -14985.1 -38.0514 24311.9
 05 11 2024  09 48  03.8152 19145.2 -14985.2 -38.0507 24312.4
 05 11 2024  09 49  03.8162 19145.4 -14985.3 -38.0507 24312.6
 05 11 2024  09 50  03.8165 19145.3 -14985.6 -38.0513 24312.8
 05 11 2024  09 51  03.8168 19146.0 -14985.3 -38.0497 24313.1
 05 11 2024  09 52  03.8176 19146.6 -14985.0 -38.0483 24313.4
 05 11 2024  09 53  03.8181 19146.7 -14985.1 -38.0483 24313.6
 05 11 2024  09 54  03.8168 19146.7 -14985.2 -38.0484 24313.6
 05 11 2024  09 55  03.8163 19147.4 -14985.1 -38.0474 24314.1
 05 11 2024  09 56  03.8160 19147.5 -14985.3 -38.0475 24314.4
 05 11 2024  09 57  03.8155 19147.7 -14985.4 -38.0474 24314.6
 05 11 2024  09 58  03.8160 19148.3 -14985.3 -38.0465 24314.9
 05 11 2024  09 59  03.8169 19148.3 -14985.5 -38.0466 24315.1
 05 11 2024  10 00  03.8179 19148.6 -14985.5 -38.0463 24315.3
 05 11 2024  10 01  03.8188 19148.8 -14985.4 -38.0458 24315.4
 05 11 2024  10 02  03.8192 19149.1 -14985.3 -38.0452 24315.6
 05 11 2024  10 03  03.8182 19149.5 -14985.3 -38.0446 24315.9
 05 11 2024  10 04  03.8178 19149.8 -14985.4 -38.0442 24316.2
 05 11 2024  10 05  03.8173 19150.2 -14985.4 -38.0437 24316.5
 05 11 2024  10 06  03.8165 19150.6 -14985.5 -38.0434 24316.9
 05 11 2024  10 07  03.8159 19151.0 -14985.7 -38.0431 24317.3
 05 11 2024  10 08  03.8157 19151.2 -14985.8 -38.0430 24317.5
 05 11 2024  10 09  03.8155 19151.1 -14985.9 -38.0433 24317.5
 05 11 2024  10 10  03.8167 19151.3 -14985.8 -38.0429 24317.6
 05 11 2024  10 11  03.8163 19151.3 -14985.9 -38.0430 24317.7
 05 11 2024  10 12  03.8168 19151.4 -14985.9 -38.0429 24317.7
 05 11 2024  10 13  03.8165 19151.4 -14986.0 -38.0431 24317.8
 05 11 2024  10 14  03.8167 19151.7 -14985.8 -38.0425 24317.9
 05 11 2024  10 15  03.8167 19151.7 -14985.9 -38.0425 24318.0
 05 11 2024  10 16  03.8158 19151.9 -14986.0 -38.0423 24318.2
 05 11 2024  10 17  03.8151 19152.2 -14986.0 -38.0420 24318.5
 05 11 2024  10 18  03.8143 19152.6 -14986.1 -38.0416 24318.8
 05 11 2024  10 19  03.8127 19153.0 -14986.2 -38.0412 24319.2
 05 11 2024  10 20  03.8124 19153.1 -14986.3 -38.0413 24319.3
 05 11 2024  10 21  03.8118 19153.3 -14986.4 -38.0411 24319.5
 05 11 2024  10 22  03.8114 19153.6 -14986.4 -38.0407 24319.8
 05 11 2024  10 23  03.8107 19153.9 -14986.5 -38.0404 24320.1
 05 11 2024  10 24  03.8093 19154.0 -14986.6 -38.0405 24320.2
 05 11 2024  10 25  03.8072 19154.3 -14986.7 -38.0403 24320.6
 05 11 2024  10 26  03.8057 19154.5 -14986.9 -38.0403 24320.8
 05 11 2024  10 27  03.8036 19154.9 -14987.1 -38.0401 24321.2
 05 11 2024  10 28  03.8018 19155.2 -14987.3 -38.0401 24321.6
 05 11 2024  10 29  03.8000 19155.4 -14987.5 -38.0402 24321.9
 05 11 2024  10 30  03.7991 19155.4 -14987.7 -38.0404 24322.1
 05 11 2024  10 31  03.7986 19155.7 -14987.8 -38.0403 24322.3
 05 11 2024  10 32  03.7970 19155.9 -14987.9 -38.0403 24322.5
 05 11 2024  10 33  03.7954 19155.8 -14988.1 -38.0407 24322.5
 05 11 2024  10 34  03.7945 19155.4 -14988.3 -38.0415 24322.4
 05 11 2024  10 35  03.7938 19155.4 -14988.5 -38.0419 24322.5
 05 11 2024  10 36  03.7936 19155.8 -14988.6 -38.0417 24322.9
 05 11 2024  10 37  03.7927 19155.9 -14988.8 -38.0418 24323.0
 05 11 2024  10 38  03.7906 19156.1 -14988.9 -38.0417 24323.3
 05 11 2024  10 39  03.7899 19156.2 -14989.0 -38.0419 24323.4
 05 11 2024  10 40  03.7895 19156.0 -14989.2 -38.0424 24323.4
 05 11 2024  10 41  03.7885 19156.2 -14989.3 -38.0423 24323.6
 05 11 2024  10 42  03.7876 19155.9 -14989.4 -38.0429 24323.5
 05 11 2024  10 43  03.7873 19156.1 -14989.6 -38.0430 24323.7
 05 11 2024  10 44  03.7872 19156.2 -14989.6 -38.0429 24323.9
 05 11 2024  10 45  03.7856 19156.4 -14989.7 -38.0428 24324.1
 05 11 2024  10 46  03.7847 19156.6 -14989.8 -38.0427 24324.3
 05 11 2024  10 47  03.7819 19156.6 -14989.9 -38.0429 24324.3
 05 11 2024  10 48  03.7827 19156.0 -14990.1 -38.0440 24324.0
 05 11 2024  10 49  03.7838 19156.0 -14990.1 -38.0442 24324.0
 05 11 2024  10 50  03.7848 19156.0 -14990.2 -38.0442 24324.1
 05 11 2024  10 51  03.7852 19156.6 -14990.2 -38.0433 24324.5
 05 11 2024  10 52  03.7854 19156.5 -14990.1 -38.0434 24324.4
 05 11 2024  10 53  03.7872 19156.6 -14990.1 -38.0432 24324.4
 05 11 2024  10 54  03.7878 19156.5 -14990.0 -38.0432 24324.3
 05 11 2024  10 55  03.7872 19156.5 -14990.6 -38.0443 24324.7
 05 11 2024  10 56  03.7840 19155.6 -14990.1 -38.0446 24323.7
 05 11 2024  10 57  03.7804 19155.1 -14990.3 -38.0456 24323.4
 05 11 2024  10 58  03.7758 19155.4 -14990.4 -38.0456 24323.7
 05 11 2024  10 59  03.7735 19154.9 -14990.7 -38.0468 24323.4
 05 11 2024  11 00  03.7727 19154.4 -14990.9 -38.0480 24323.2
 05 11 2024  11 01  03.7736 19154.5 -14991.1 -38.0481 24323.4
 05 11 2024  11 02  03.7741 19154.9 -14991.2 -38.0478 24323.8
 05 11 2024  11 03  03.7742 19154.8 -14991.1 -38.0478 24323.6
 05 11 2024  11 04  03.7738 19155.5 -14991.3 -38.0471 24324.3
 05 11 2024  11 05  03.7719 19155.5 -14991.3 -38.0470 24324.3
 05 11 2024  11 06  03.7698 19154.9 -14991.4 -38.0480 24323.9
 05 11 2024  11 07  03.7676 19154.1 -14991.5 -38.0494 24323.3
 05 11 2024  11 08  03.7674 19154.4 -14991.6 -38.0493 24323.6
 05 11 2024  11 09  03.7671 19154.6 -14991.7 -38.0491 24323.9
 05 11 2024  11 10  03.7675 19155.0 -14991.7 -38.0486 24324.1
 05 11 2024  11 11  03.7677 19155.2 -14991.6 -38.0481 24324.3
 05 11 2024  11 12  03.7675 19154.8 -14991.6 -38.0486 24324.0
 05 11 2024  11 13  03.7672 19154.7 -14991.6 -38.0488 24323.9
 05 11 2024  11 14  03.7674 19154.5 -14991.7 -38.0491 24323.8
 05 11 2024  11 15  03.7663 19154.3 -14991.7 -38.0495 24323.6
 05 11 2024  11 16  03.7670 19154.3 -14991.7 -38.0496 24323.6
 05 11 2024  11 17  03.7680 19153.9 -14991.8 -38.0502 24323.3
 05 11 2024  11 18  03.7689 19153.6 -14991.8 -38.0506 24323.1
 05 11 2024  11 19  03.7702 19153.6 -14991.8 -38.0507 24323.1
 05 11 2024  11 20  03.7708 19153.5 -14991.8 -38.0508 24323.0
 05 11 2024  11 21  03.7710 19153.8 -14991.8 -38.0505 24323.3
 05 11 2024  11 22  03.7713 19153.7 -14991.8 -38.0505 24323.2
 05 11 2024  11 23  03.7714 19153.2 -14991.8 -38.0512 24322.8
 05 11 2024  11 24  03.7715 19153.2 -14991.8 -38.0514 24322.8
 05 11 2024  11 25  03.7711 19152.8 -14991.9 -38.0520 24322.6
 05 11 2024  11 26  03.7712 19153.0 -14991.9 -38.0518 24322.8
 05 11 2024  11 27  03.7706 19153.0 -14992.0 -38.0518 24322.8
 05 11 2024  11 28  03.7706 19153.0 -14992.0 -38.0520 24322.8
 05 11 2024  11 29  03.7701 19152.8 -14992.0 -38.0522 24322.7
 05 11 2024  11 30  03.7703 19152.2 -14992.1 -38.0533 24322.2
 05 11 2024  11 31  03.7701 19152.2 -14992.2 -38.0534 24322.3
 05 11 2024  11 32  03.7690 19152.5 -14992.2 -38.0531 24322.5
 05 11 2024  11 33  03.7675 19152.1 -14992.3 -38.0538 24322.2
 05 11 2024  11 34  03.7663 19152.2 -14992.4 -38.0539 24322.4
 05 11 2024  11 35  03.7666 19151.7 -14992.6 -38.0549 24322.1
 05 11 2024  11 36  03.7667 19151.0 -14992.6 -38.0560 24321.6
 05 11 2024  11 37  03.7665 19151.1 -14992.7 -38.0561 24321.7
 05 11 2024  11 38  03.7650 19151.0 -14992.7 -38.0562 24321.6
 05 11 2024  11 39  03.7642 19150.8 -14992.7 -38.0565 24321.5
 05 11 2024  11 40  03.7634 19150.8 -14992.8 -38.0567 24321.5
 05 11 2024  11 41  03.7627 19151.0 -14992.8 -38.0563 24321.7
 05 11 2024  11 42  03.7619 19150.8 -14992.9 -38.0567 24321.6
 05 11 2024  11 43  03.7616 19150.6 -14993.0 -38.0572 24321.5
 05 11 2024  11 44  03.7607 19150.2 -14993.0 -38.0579 24321.2
 05 11 2024  11 45  03.7598 19150.1 -14993.1 -38.0582 24321.2
 05 11 2024  11 46  03.7599 19150.0 -14993.2 -38.0585 24321.1
 05 11 2024  11 47  03.7596 19150.0 -14993.2 -38.0586 24321.1
 05 11 2024  11 48  03.7605 19150.1 -14993.2 -38.0585 24321.2
 05 11 2024  11 49  03.7600 19149.9 -14993.2 -38.0587 24321.1
 05 11 2024  11 50  03.7600 19150.2 -14993.2 -38.0583 24321.3
 05 11 2024  11 51  03.7599 19150.2 -14993.2 -38.0582 24321.3
 05 11 2024  11 52  03.7593 19150.3 -14993.1 -38.0579 24321.4
 05 11 2024  11 53  03.7586 19150.7 -14993.1 -38.0573 24321.7
 05 11 2024  11 54  03.7584 19150.8 -14993.0 -38.0570 24321.6
 05 11 2024  11 55  03.7590 19150.5 -14992.9 -38.0573 24321.4
 05 11 2024  11 56  03.7595 19150.3 -14992.9 -38.0575 24321.2
 05 11 2024  11 57  03.7597 19149.9 -14992.8 -38.0579 24320.8
 05 11 2024  11 58  03.7598 19149.7 -14992.7 -38.0581 24320.6
 05 11 2024  11 59  03.7600 19149.6 -14992.7 -38.0582 24320.5
 05 11 2024  12 00  03.7604 19149.0 -14992.6 -38.0588 24320.0
 05 11 2024  12 01  03.7605 19148.5 -14992.6 -38.0595 24319.6
 05 11 2024  12 02  03.7598 19147.8 -14992.5 -38.0605 24319.1
 05 11 2024  12 03  03.7591 19147.6 -14992.5 -38.0608 24318.9
 05 11 2024  12 04  03.7596 19147.3 -14992.5 -38.0613 24318.6
 05 11 2024  12 05  03.7585 19146.8 -14992.5 -38.0618 24318.2
 05 11 2024  12 06  03.7579 19147.0 -14992.5 -38.0616 24318.3
 05 11 2024  12 07  03.7576 19147.2 -14992.5 -38.0613 24318.5
 05 11 2024  12 08  03.7572 19146.8 -14992.4 -38.0617 24318.1
 05 11 2024  12 09  03.7572 19146.5 -14992.4 -38.0621 24317.9
 05 11 2024  12 10  03.7571 19146.5 -14992.4 -38.0621 24317.9
 05 11 2024  12 11  03.7596 19145.9 -14992.3 -38.0629 24317.4
 05 11 2024  12 12  03.7585 19145.6 -14992.2 -38.0630 24317.0
 05 11 2024  12 13  03.7572 19145.4 -14992.1 -38.0632 24316.9
 05 11 2024  12 14  03.7645 19144.6 -14992.2 -38.0645 24316.3
 05 11 2024  12 15  03.7769 19128.5 -14997.3 -38.0973 24306.8
 05 11 2024  12 16  03.7467 19147.4 -14985.5 -38.0480 24314.4
 05 11 2024  12 17  03.7577 19150.3 -14987.9 -38.0483 24318.2
 05 11 2024  12 18  03.7521 19146.4 -14991.1 -38.0599 24317.0
 05 11 2024  12 19  03.7527 19146.5 -14991.2 -38.0599 24317.2
 05 11 2024  12 20  03.7522 19146.3 -14991.6 -38.0610 24317.3
 05 11 2024  12 21  03.7507 19146.6 -14991.8 -38.0609 24317.6
 05 11 2024  12 22  03.7505 19146.6 -14991.8 -38.0609 24317.7
 05 11 2024  12 23  03.7500 19146.1 -14991.9 -38.0617 24317.3
 05 11 2024  12 24  03.7479 19145.5 -14991.8 -38.0625 24316.8
 05 11 2024  12 25  03.7458 19147.0 -14991.7 -38.0601 24317.8
 05 11 2024  12 26  03.7476 19149.0 -14991.4 -38.0568 24319.3
 05 11 2024  12 27  03.7467 19150.8 -14991.3 -38.0539 24320.7
 05 11 2024  12 28  03.7457 19152.7 -14991.0 -38.0506 24321.9
 05 11 2024  12 29  03.7453 19153.5 -14990.7 -38.0487 24322.4
 05 11 2024  12 30  03.7435 19153.4 -14990.5 -38.0486 24322.1
 05 11 2024  12 31  03.7419 19152.4 -14990.4 -38.0499 24321.3
 05 11 2024  12 32  03.7417 19152.0 -14990.3 -38.0503 24320.9
 05 11 2024  12 33  03.7406 19151.5 -14990.2 -38.0508 24320.5
 05 11 2024  12 34  03.7398 19151.0 -14990.1 -38.0514 24320.0
 05 11 2024  12 35  03.7393 19151.2 -14990.0 -38.0508 24320.2
 05 11 2024  12 36  03.7392 19151.8 -14989.9 -38.0498 24320.5
 05 11 2024  12 37  03.7387 19151.7 -14989.6 -38.0495 24320.2
 05 11 2024  12 38  03.7384 19151.8 -14989.5 -38.0490 24320.3
 05 11 2024  12 39  03.7383 19152.0 -14989.3 -38.0485 24320.3
 05 11 2024  12 40  03.7382 19151.6 -14989.1 -38.0487 24319.9
 05 11 2024  12 41  03.7379 19151.4 -14989.0 -38.0487 24319.6
 05 11 2024  12 42  03.7374 19151.5 -14988.8 -38.0482 24319.6
 05 11 2024  12 43  03.7368 19151.8 -14988.6 -38.0474 24319.7
 05 11 2024  12 44  03.7364 19152.4 -14988.4 -38.0462 24320.1
 05 11 2024  12 45  03.7368 19153.2 -14988.2 -38.0445 24320.6
 05 11 2024  12 46  03.7377 19153.3 -14987.9 -38.0440 24320.5
 05 11 2024  12 47  03.7375 19152.7 -14987.7 -38.0444 24319.9
 05 11 2024  12 48  03.7369 19152.1 -14987.6 -38.0451 24319.3
 05 11 2024  12 49  03.7361 19152.1 -14987.5 -38.0449 24319.3
 05 11 2024  12 50  03.7360 19151.8 -14987.4 -38.0450 24319.0
 05 11 2024  12 51  03.7356 19151.8 -14987.2 -38.0448 24318.9
 05 11 2024  12 52  03.7360 19150.9 -14987.0 -38.0457 24318.1
 05 11 2024  12 53  03.7359 19150.7 -14986.9 -38.0460 24317.8
 05 11 2024  12 54  03.7356 19151.6 -14986.7 -38.0443 24318.4
 05 11 2024  12 55  03.7353 19152.7 -14986.7 -38.0426 24319.2
 05 11 2024  12 56  03.7352 19154.4 -14986.4 -38.0395 24320.4
 05 11 2024  12 57  03.7370 19154.5 -14986.1 -38.0389 24320.3
 05 11 2024  12 58  03.7367 19154.1 -14985.7 -38.0387 24319.8
 05 11 2024  12 59  03.7372 19154.0 -14985.5 -38.0384 24319.6
 05 11 2024  13 00  03.7367 19153.0 -14985.3 -38.0396 24318.7
 05 11 2024  13 01  03.7360 19151.5 -14985.3 -38.0417 24317.4
 05 11 2024  13 02  03.7351 19149.8 -14985.3 -38.0443 24316.1
 05 11 2024  13 03  03.7345 19148.6 -14985.5 -38.0463 24315.3
 05 11 2024  13 04  03.7334 19147.2 -14985.6 -38.0485 24314.3
 05 11 2024  13 05  03.7332 19146.9 -14985.8 -38.0492 24314.1
 05 11 2024  13 06  03.7326 19146.5 -14985.8 -38.0500 24313.8
 05 11 2024  13 07  03.7327 19146.2 -14985.8 -38.0503 24313.6
 05 11 2024  13 08  03.7332 19146.2 -14985.8 -38.0503 24313.5
 05 11 2024  13 09  03.7329 19146.9 -14985.6 -38.0491 24314.0
 05 11 2024  13 10  03.7329 19147.1 -14985.5 -38.0484 24314.1
 05 11 2024  13 11  03.7328 19147.3 -14985.3 -38.0478 24314.2
 05 11 2024  13 12  03.7339 19146.8 -14985.1 -38.0482 24313.7
 05 11 2024  13 13  03.7303 19146.2 -14984.9 -38.0486 24313.0
 05 11 2024  13 14  03.7339 19145.4 -14984.9 -38.0498 24312.4
 05 11 2024  13 15  03.7336 19144.9 -14985.0 -38.0508 24312.1
 05 11 2024  13 16  03.7318 19144.7 -14985.1 -38.0512 24311.9
 05 11 2024  13 17  03.7184 19147.8 -14985.9 -38.0481 24314.9
 05 11 2024  13 18  03.7323 19149.2 -14984.3 -38.0431 24315.0
 05 11 2024  13 19  03.7391 19151.0 -14987.6 -38.0466 24318.5
 05 11 2024  13 20  03.7304 19144.6 -14984.4 -38.0502 24311.5
 05 11 2024  13 21  03.7339 19143.6 -14984.0 -38.0508 24310.5
 05 11 2024  13 22  03.7327 19143.7 -14984.2 -38.0509 24310.7
 05 11 2024  13 23  03.7327 19143.7 -14984.3 -38.0512 24310.7
 05 11 2024  13 24  03.7320 19143.5 -14984.2 -38.0514 24310.5
 05 11 2024  13 25  03.7314 19143.4 -14984.2 -38.0515 24310.4
 05 11 2024  13 26  03.7312 19143.1 -14984.1 -38.0516 24310.1
 05 11 2024  13 27  03.7308 19143.0 -14984.1 -38.0517 24310.0
 05 11 2024  13 28  03.7298 19143.1 -14983.9 -38.0513 24310.0
 05 11 2024  13 29  03.7297 19143.3 -14983.9 -38.0510 24310.1
 05 11 2024  13 30  03.7295 19143.7 -14983.7 -38.0500 24310.3
 05 11 2024  13 31  03.7297 19144.3 -14983.5 -38.0488 24310.6
 05 11 2024  13 32  03.7295 19144.7 -14983.3 -38.0479 24310.9
 05 11 2024  13 33  03.7291 19145.5 -14983.0 -38.0463 24311.3
 05 11 2024  13 34  03.7292 19146.3 -14982.8 -38.0445 24311.8
 05 11 2024  13 35  03.7297 19147.1 -14982.5 -38.0430 24312.2
 05 11 2024  13 36  03.7304 19148.0 -14982.2 -38.0411 24312.8
 05 11 2024  13 37  03.7314 19148.8 -14981.9 -38.0393 24313.2
 05 11 2024  13 38  03.7318 19149.5 -14981.5 -38.0376 24313.5
 05 11 2024  13 39  03.7321 19149.8 -14981.2 -38.0365 24313.6
 05 11 2024  13 40  03.7323 19150.0 -14980.9 -38.0357 24313.6
 05 11 2024  13 41  03.7316 19150.1 -14980.6 -38.0350 24313.5
 05 11 2024  13 42  03.7311 19149.5 -14980.4 -38.0354 24312.9
 05 11 2024  13 43  03.7304 19148.9 -14980.2 -38.0360 24312.2
 05 11 2024  13 44  03.7297 19148.3 -14980.1 -38.0367 24311.7
 05 11 2024  13 45  03.7292 19147.7 -14980.0 -38.0373 24311.2
 05 11 2024  13 46  03.7283 19147.6 -14979.8 -38.0372 24311.0
 05 11 2024  13 47  03.7279 19147.7 -14979.7 -38.0369 24311.0
 05 11 2024  13 48  03.7273 19148.5 -14979.5 -38.0354 24311.5
 05 11 2024  13 49  03.7268 19149.9 -14979.3 -38.0328 24312.5
 05 11 2024  13 50  03.7269 19150.6 -14978.9 -38.0312 24312.8
 05 11 2024  13 51  03.7273 19150.9 -14978.6 -38.0300 24312.9
 05 11 2024  13 52  03.7276 19151.1 -14978.2 -38.0291 24312.8
 05 11 2024  13 53  03.7277 19151.4 -14977.9 -38.0282 24312.8
 05 11 2024  13 54  03.7277 19151.6 -14977.6 -38.0272 24312.8
 05 11 2024  13 55  03.7282 19152.0 -14977.3 -38.0260 24312.9
 05 11 2024  13 56  03.7292 19152.7 -14976.9 -38.0243 24313.2
 05 11 2024  13 57  03.7299 19154.0 -14976.4 -38.0216 24313.9
 05 11 2024  13 58  03.7314 19155.1 -14975.8 -38.0189 24314.5
 05 11 2024  13 59  03.7322 19155.1 -14975.3 -38.0179 24314.1
 05 11 2024  14 00  03.7317 19155.2 -14975.0 -38.0171 24314.0
 05 11 2024  14 01  03.7325 19156.0 -14974.4 -38.0150 24314.3
 05 11 2024  14 02  03.7300 19156.4 -14973.5 -38.0127 24314.1
 05 11 2024  14 03  03.7319 19155.8 -14973.8 -38.0140 24313.8
 05 11 2024  14 04  03.7319 19155.7 -14973.5 -38.0138 24313.5
 05 11 2024  14 05  03.7319 19155.3 -14973.2 -38.0137 24313.0
 05 11 2024  14 06  03.7319 19154.1 -14973.0 -38.0151 24311.9
 05 11 2024  14 07  03.7321 19153.0 -14972.9 -38.0166 24311.0
 05 11 2024  14 08  03.7321 19153.0 -14972.7 -38.0161 24310.9
 05 11 2024  14 09  03.7319 19153.0 -14972.7 -38.0162 24310.9
 05 11 2024  14 10  03.7323 19152.9 -14972.7 -38.0162 24310.8
 05 11 2024  14 11  03.7322 19152.8 -14972.2 -38.0155 24310.4
 05 11 2024  14 12  03.7315 19151.3 -14972.1 -38.0174 24309.2
 05 11 2024  14 13  03.7300 19149.8 -14972.1 -38.0198 24308.0
 05 11 2024  14 14  03.7287 19148.7 -14972.2 -38.0214 24307.2
 05 11 2024  14 15  03.7277 19148.0 -14972.3 -38.0227 24306.7
 05 11 2024  14 16  03.7265 19147.5 -14972.4 -38.0235 24306.4
 05 11 2024  14 17  03.7250 19146.7 -14972.4 -38.0247 24305.8
 05 11 2024  14 18  03.7245 19146.1 -14972.4 -38.0257 24305.2
 05 11 2024  14 19  03.7256 19146.6 -14972.5 -38.0250 24305.7
 05 11 2024  14 20  03.7271 19146.8 -14972.3 -38.0244 24305.8
 05 11 2024  14 21  03.7286 19147.2 -14972.2 -38.0235 24306.0
 05 11 2024  14 22  03.7301 19147.2 -14971.9 -38.0231 24305.8
 05 11 2024  14 23  03.7304 19146.3 -14971.7 -38.0240 24305.0
 05 11 2024  14 24  03.7303 19145.7 -14971.5 -38.0245 24304.4
 05 11 2024  14 25  03.7310 19145.1 -14971.4 -38.0251 24303.9
 05 11 2024  14 26  03.7315 19144.7 -14971.2 -38.0254 24303.5
 05 11 2024  14 27  03.7331 19144.7 -14971.1 -38.0251 24303.4
 05 11 2024  14 28  03.7343 19144.6 -14970.9 -38.0251 24303.2
 05 11 2024  14 29  03.7348 19144.8 -14970.8 -38.0245 24303.3
 05 11 2024  14 30  03.7362 19145.4 -14970.6 -38.0232 24303.6
 05 11 2024  14 31  03.7370 19145.7 -14970.3 -38.0223 24303.6
 05 11 2024  14 32  03.7381 19145.8 -14970.0 -38.0216 24303.6
 05 11 2024  14 33  03.7397 19146.1 -14969.7 -38.0205 24303.6
 05 11 2024  14 34  03.7408 19146.8 -14969.4 -38.0191 24303.9
 05 11 2024  14 35  03.7430 19148.8 -14969.0 -38.0154 24305.3
 05 11 2024  14 36  03.7449 19151.1 -14968.5 -38.0111 24306.8
 05 11 2024  14 37  03.7495 19154.8 -14967.7 -38.0042 24309.3
 05 11 2024  14 38  03.7530 19156.1 -14966.8 -38.0007 24309.7
 05 11 2024  14 39  03.7550 19157.1 -14966.0 -37.9977 24310.0
 05 11 2024  14 40  03.7568 19158.3 -14965.3 -37.9947 24310.5
 05 11 2024  14 41  03.7573 19158.5 -14964.6 -37.9933 24310.2
 05 11 2024  14 42  03.7568 19157.5 -14964.2 -37.9937 24309.2
 05 11 2024  14 43  03.7568 19157.0 -14963.9 -37.9939 24308.6
 05 11 2024  14 44  03.7570 19156.4 -14963.6 -37.9943 24307.9
 05 11 2024  14 45  03.7566 19155.4 -14963.3 -37.9952 24307.0
 05 11 2024  14 46  03.7563 19154.2 -14963.2 -37.9967 24306.0
 05 11 2024  14 47  03.7550 19152.8 -14963.1 -37.9987 24304.8
 05 11 2024  14 48  03.7538 19151.0 -14963.1 -38.0012 24303.4
 05 11 2024  14 49  03.7523 19149.2 -14963.3 -38.0041 24302.1
 05 11 2024  14 50  03.7515 19147.8 -14963.4 -38.0064 24301.1
 05 11 2024  14 51  03.7510 19146.9 -14963.6 -38.0081 24300.5
 05 11 2024  14 52  03.7507 19145.7 -14963.7 -38.0100 24299.6
 05 11 2024  14 53  03.7507 19144.9 -14963.9 -38.0115 24299.1
 05 11 2024  14 54  03.7508 19144.2 -14964.0 -38.0127 24298.6
 05 11 2024  14 55  03.7512 19144.0 -14964.0 -38.0130 24298.5
 05 11 2024  14 56  03.7521 19144.2 -14964.0 -38.0129 24298.6
 05 11 2024  14 57  03.7534 19144.3 -14963.9 -38.0125 24298.7
 05 11 2024  14 58  03.7539 19143.4 -14963.8 -38.0136 24297.8
 05 11 2024  14 59  03.7542 19142.6 -14963.8 -38.0146 24297.2
 05 11 2024  15 00  03.7543 19142.0 -14963.8 -38.0155 24296.8
 05 11 2024  15 01  03.7548 19142.0 -14963.8 -38.0156 24296.7
 05 11 2024  15 02  03.7557 19142.2 -14963.7 -38.0151 24296.8
 05 11 2024  15 03  03.7569 19142.0 -14963.6 -38.0151 24296.6
 05 11 2024  15 04  03.7577 19141.8 -14963.4 -38.0152 24296.4
 05 11 2024  15 05  03.7585 19141.7 -14963.3 -38.0150 24296.2
 05 11 2024  15 06  03.7588 19141.8 -14963.1 -38.0147 24296.1
 05 11 2024  15 07  03.7591 19141.9 -14963.0 -38.0142 24296.2
 05 11 2024  15 08  03.7605 19142.5 -14962.8 -38.0131 24296.5
 05 11 2024  15 09  03.7621 19142.8 -14962.6 -38.0123 24296.6
 05 11 2024  15 10  03.7628 19142.8 -14962.4 -38.0119 24296.5
 05 11 2024  15 11  03.7637 19143.3 -14962.2 -38.0108 24296.8
 05 11 2024  15 12  03.7638 19143.1 -14962.0 -38.0107 24296.5
 05 11 2024  15 13  03.7634 19142.1 -14961.8 -38.0118 24295.6
 05 11 2024  15 14  03.7622 19140.7 -14961.7 -38.0135 24294.4
 05 11 2024  15 15  03.7627 19140.8 -14961.7 -38.0134 24294.5
 05 11 2024  15 16  03.7652 19141.8 -14961.6 -38.0117 24295.3
 05 11 2024  15 17  03.7678 19142.8 -14961.3 -38.0098 24295.9
 05 11 2024  15 18  03.7715 19144.5 -14961.1 -38.0070 24297.0
 05 11 2024  15 19  03.7747 19146.6 -14960.6 -38.0029 24298.3
 05 11 2024  15 20  03.7786 19149.8 -14959.8 -37.9968 24300.4
 05 11 2024  15 21  03.7819 19152.4 -14958.9 -37.9914 24301.9
 05 11 2024  15 22  03.7848 19154.5 -14958.1 -37.9868 24303.1
 05 11 2024  15 23  03.7888 19157.4 -14957.2 -37.9810 24304.8
 05 11 2024  15 24  03.7918 19159.2 -14956.3 -37.9767 24305.6
 05 11 2024  15 25  03.7937 19162.3 -14955.9 -37.9715 24307.8
 05 11 2024  15 26  03.7941 19161.7 -14954.7 -37.9700 24306.7
 05 11 2024  15 27  03.7951 19162.3 -14954.1 -37.9681 24306.7
 05 11 2024  15 28  03.7955 19161.8 -14953.6 -37.9678 24306.1
 05 11 2024  15 29  03.7964 19161.5 -14953.0 -37.9672 24305.4
 05 11 2024  15 30  03.7947 19160.2 -14952.6 -37.9683 24304.2
 05 11 2024  15 31  03.7932 19158.8 -14952.4 -37.9700 24303.0
 05 11 2024  15 32  03.7932 19158.6 -14952.3 -37.9700 24302.8
 05 11 2024  15 33  03.7958 19158.7 -14952.0 -37.9694 24302.7
 05 11 2024  15 34  03.7976 19159.0 -14951.6 -37.9683 24302.6
 05 11 2024  15 35  03.7991 19159.5 -14951.2 -37.9666 24302.8
 05 11 2024  15 36  03.8000 19159.0 -14950.7 -37.9667 24302.1
 05 11 2024  15 37  03.8012 19158.3 -14950.5 -37.9671 24301.4
 05 11 2024  15 38  03.8036 19158.8 -14950.2 -37.9659 24301.6
 05 11 2024  15 39  03.8047 19158.7 -14949.8 -37.9652 24301.3
 05 11 2024  15 40  03.8068 19159.6 -14949.4 -37.9633 24301.8
 05 11 2024  15 41  03.8096 19160.6 -14948.9 -37.9610 24302.2
 05 11 2024  15 42  03.8119 19161.2 -14948.4 -37.9591 24302.4
 05 11 2024  15 43  03.8137 19161.0 -14947.8 -37.9583 24301.9
 05 11 2024  15 44  03.8163 19161.5 -14947.4 -37.9568 24302.0
 05 11 2024  15 45  03.8191 19161.8 -14946.9 -37.9555 24301.9
 05 11 2024  15 46  03.8197 19161.5 -14946.4 -37.9550 24301.4
 05 11 2024  15 47  03.8209 19161.6 -14946.0 -37.9541 24301.3
 05 11 2024  15 48  03.8230 19163.0 -14945.6 -37.9513 24302.1
 05 11 2024  15 49  03.8241 19163.3 -14945.1 -37.9499 24302.1
 05 11 2024  15 50  03.8257 19163.9 -14944.7 -37.9484 24302.2
 05 11 2024  15 51  03.8262 19163.5 -14944.3 -37.9480 24301.7
 05 11 2024  15 52  03.8251 19162.4 -14944.0 -37.9491 24300.6
 05 11 2024  15 53  03.8238 19161.0 -14943.8 -37.9508 24299.4
 05 11 2024  15 54  03.8220 19159.4 -14943.8 -37.9532 24298.2
 05 11 2024  15 55  03.8206 19157.6 -14943.9 -37.9560 24296.8
 05 11 2024  15 56  03.8187 19155.7 -14944.1 -37.9591 24295.4
 05 11 2024  15 57  03.8164 19153.6 -14944.4 -37.9626 24293.9
 05 11 2024  15 58  03.8155 19152.0 -14944.7 -37.9655 24292.8
 05 11 2024  15 59  03.8146 19150.4 -14944.9 -37.9683 24291.7
 05 11 2024  16 00  03.8133 19149.0 -14945.2 -37.9708 24290.8
 05 11 2024  16 01  03.8117 19147.6 -14945.5 -37.9734 24289.9
 05 11 2024  16 02  03.8108 19146.8 -14945.8 -37.9752 24289.5
 05 11 2024  16 03  03.8115 19146.5 -14946.0 -37.9760 24289.4
 05 11 2024  16 04  03.8126 19147.0 -14946.1 -37.9755 24289.8
 05 11 2024  16 05  03.8140 19147.0 -14946.1 -37.9755 24289.8
 05 11 2024  16 06  03.8127 19145.4 -14946.2 -37.9778 24288.6
 05 11 2024  16 07  03.8119 19144.9 -14946.3 -37.9788 24288.3
 05 11 2024  16 08  03.8106 19144.2 -14946.5 -37.9803 24287.8
 05 11 2024  16 09  03.8101 19144.0 -14946.7 -37.9809 24287.8
 05 11 2024  16 10  03.8106 19144.4 -14946.8 -37.9805 24288.2
 05 11 2024  16 11  03.8115 19144.9 -14946.8 -37.9798 24288.5
 05 11 2024  16 12  03.8117 19144.8 -14946.7 -37.9797 24288.4
 05 11 2024  16 13  03.8113 19144.0 -14946.7 -37.9809 24287.8
 05 11 2024  16 14  03.8109 19143.3 -14946.8 -37.9820 24287.3
 05 11 2024  16 15  03.8118 19143.2 -14946.8 -37.9822 24287.2
 05 11 2024  16 16  03.8144 19143.9 -14946.7 -37.9811 24287.7
 05 11 2024  16 17  03.8167 19144.2 -14946.5 -37.9803 24287.9
 05 11 2024  16 18  03.8190 19145.2 -14946.3 -37.9785 24288.5
 05 11 2024  16 19  03.8216 19145.8 -14946.0 -37.9770 24288.8
 05 11 2024  16 20  03.8227 19145.8 -14945.8 -37.9765 24288.7
 05 11 2024  16 21  03.8230 19145.9 -14945.6 -37.9761 24288.6
 05 11 2024  16 22  03.8225 19145.1 -14945.5 -37.9769 24287.9
 05 11 2024  16 23  03.8213 19144.2 -14945.5 -37.9783 24287.2
 05 11 2024  16 24  03.8200 19143.5 -14945.5 -37.9794 24286.7
 05 11 2024  16 25  03.8202 19143.3 -14945.6 -37.9800 24286.5
 05 11 2024  16 26  03.8216 19143.6 -14945.6 -37.9794 24286.8
 05 11 2024  16 27  03.8244 19144.4 -14945.5 -37.9782 24287.4
 05 11 2024  16 28  03.8266 19145.5 -14945.3 -37.9761 24288.1
 05 11 2024  16 29  03.8305 19146.9 -14945.0 -37.9736 24289.1
 05 11 2024  16 30  03.8338 19147.8 -14944.7 -37.9717 24289.5
 05 11 2024  16 31  03.8354 19147.7 -14944.3 -37.9712 24289.2
 05 11 2024  16 32  03.8359 19147.4 -14944.1 -37.9711 24288.9
 05 11 2024  16 33  03.8371 19147.7 -14943.9 -37.9704 24289.0
 05 11 2024  16 34  03.8393 19148.9 -14943.7 -37.9682 24289.8
 05 11 2024  16 35  03.8424 19150.4 -14943.3 -37.9654 24290.8
 05 11 2024  16 36  03.8443 19151.4 -14943.0 -37.9633 24291.3
 05 11 2024  16 37  03.8488 19153.9 -14942.6 -37.9589 24293.1
 05 11 2024  16 38  03.8517 19154.9 -14942.0 -37.9564 24293.5
 05 11 2024  16 39  03.8540 19155.3 -14941.5 -37.9549 24293.5
 05 11 2024  16 40  03.8549 19154.9 -14941.2 -37.9548 24293.0
 05 11 2024  16 41  03.8547 19154.1 -14941.0 -37.9555 24292.2
 05 11 2024  16 42  03.8530 19152.5 -14940.9 -37.9578 24290.9
 05 11 2024  16 43  03.8535 19152.3 -14941.0 -37.9582 24290.8
 05 11 2024  16 44  03.8514 19151.4 -14941.0 -37.9596 24290.2
 05 11 2024  16 45  03.8523 19152.7 -14941.1 -37.9577 24291.2
 05 11 2024  16 46  03.8537 19153.8 -14940.9 -37.9558 24292.0
 05 11 2024  16 47  03.8573 19155.2 -14940.6 -37.9533 24292.9
 05 11 2024  16 48  03.8574 19154.7 -14940.3 -37.9535 24292.3
 05 11 2024  16 49  03.8585 19155.9 -14940.2 -37.9516 24293.1
 05 11 2024  16 50  03.8626 19157.9 -14939.9 -37.9481 24294.5
 05 11 2024  16 51  03.8637 19158.0 -14939.5 -37.9473 24294.4
 05 11 2024  16 52  03.8620 19156.7 -14939.4 -37.9489 24293.3
 05 11 2024  16 53  03.8598 19154.8 -14939.5 -37.9518 24291.9
 05 11 2024  16 54  03.8568 19152.8 -14939.8 -37.9553 24290.5
 05 11 2024  16 55  03.8553 19151.4 -14940.2 -37.9581 24289.6
 05 11 2024  16 56  03.8551 19150.2 -14940.5 -37.9604 24288.9
 05 11 2024  16 57  03.8561 19149.9 -14940.8 -37.9614 24288.8
 05 11 2024  16 58  03.8562 19148.8 -14941.0 -37.9634 24288.1
 05 11 2024  16 59  03.8552 19147.9 -14941.3 -37.9652 24287.5
 05 11 2024  17 00  03.8554 19147.7 -14941.6 -37.9660 24287.6
 05 11 2024  17 01  03.8563 19148.5 -14941.9 -37.9653 24288.4
 05 11 2024  17 02  03.8577 19149.0 -14942.0 -37.9649 24288.9
 05 11 2024  17 03  03.8597 19149.6 -14942.1 -37.9643 24289.4
 05 11 2024  17 04  03.8598 19149.5 -14942.2 -37.9645 24289.4
 05 11 2024  17 05  03.8618 19150.8 -14942.3 -37.9629 24290.4
 05 11 2024  17 06  03.8624 19150.9 -14942.4 -37.9629 24290.6
 05 11 2024  17 07  03.8635 19150.8 -14942.6 -37.9633 24290.6
 05 11 2024  17 08  03.8620 19149.8 -14942.8 -37.9651 24290.0
 05 11 2024  17 09  03.8632 19150.1 -14943.0 -37.9652 24290.3
 05 11 2024  17 10  03.8636 19150.0 -14943.2 -37.9658 24290.3
 05 11 2024  17 11  03.8643 19150.1 -14943.4 -37.9660 24290.5
 05 11 2024  17 12  03.8647 19149.8 -14943.6 -37.9667 24290.5
 05 11 2024  17 13  03.8645 19149.6 -14974.4 -38.0243 24309.2
 05 11 2024  17 14  03.8643 19149.1 -14996.2 -38.0654 24322.3
 05 11 2024  17 15  03.8650 19148.8 -14995.9 -38.0652 24321.9
 05 11 2024  17 16  03.8657 19148.6 -14997.7 -38.0690 24322.8
 05 11 2024  17 17  03.8657 19147.9 -15001.1 -38.0763 24324.4
 05 11 2024  17 18  03.8667 19147.5 -15001.3 -38.0772 24324.2
 05 11 2024  17 19  03.8655 19146.2 -15002.3 -38.0809 24323.8
 05 11 2024  17 20  03.8649 19145.4 -15007.0 -38.0909 24326.1
 05 11 2024  17 21  03.8641 19144.7 -15005.8 -38.0897 24324.8
 05 11 2024  17 22  03.8622 19143.8 -15006.5 -38.0923 24324.5
 05 11 2024  17 23  03.8633 19144.6 -15007.8 -38.0935 24325.9
 05 11 2024  17 24  03.8638 19144.9 -15005.0 -38.0878 24324.5
 05 11 2024  17 25  03.8655 19146.7 -14987.4 -38.0525 24315.0
 05 11 2024  17 26  03.8706 19150.3 -14954.0 -37.9852 24297.3
 05 11 2024  17 27  03.8744 19153.0 -14981.1 -38.0318 24316.0
 05 11 2024  17 28  03.8772 19153.4 -15002.9 -38.0716 24329.8
 05 11 2024  17 29  03.8784 19152.3 -15004.9 -38.0769 24330.1
 05 11 2024  17 30  03.8796 19151.8 -15003.8 -38.0755 24329.1
 05 11 2024  17 31  03.8844 19153.3 -14998.6 -38.0638 24327.1
 05 11 2024  17 32  03.8894 19155.9 -14987.2 -38.0387 24322.1
 05 11 2024  17 33  03.8967 19160.4 -14972.7 -38.0053 24316.7
 05 11 2024  17 34  03.9044 19164.0 -14970.6 -37.9962 24318.2
 05 11 2024  17 35  03.9100 19165.9 -14973.8 -37.9994 24321.7
 05 11 2024  17 36  03.9126 19166.2 -14969.1 -37.9903 24319.1
 05 11 2024  17 37  03.9161 19168.3 -14964.7 -37.9790 24318.0
 05 11 2024  17 38  03.9214 19171.4 -14955.0 -37.9566 24314.5
 05 11 2024  17 39  03.9242 19173.3 -14954.2 -37.9524 24315.5
 05 11 2024  17 40  03.9244 19173.6 -14952.6 -37.9490 24314.7
 05 11 2024  17 41  03.9247 19173.2 -14950.7 -37.9459 24313.3
 05 11 2024  17 42  03.9239 19172.2 -14950.8 -37.9477 24312.5
 05 11 2024  17 43  03.9189 19169.1 -14954.2 -37.9585 24312.2
 05 11 2024  17 44  03.9152 19167.0 -14951.7 -37.9570 24309.0
 05 11 2024  17 45  03.9138 19165.4 -14951.6 -37.9589 24307.7
 05 11 2024  17 46  03.9128 19164.3 -14954.5 -37.9659 24308.6
 05 11 2024  17 47  03.9114 19162.1 -14956.1 -37.9720 24307.8
 05 11 2024  17 48  03.9088 19159.6 -14954.7 -37.9732 24305.0
 05 11 2024  17 49  03.9081 19158.6 -14953.6 -37.9726 24303.6
 05 11 2024  17 50  03.9075 19157.6 -14952.4 -37.9718 24302.0
 05 11 2024  17 51  03.9073 19156.6 -14950.5 -37.9696 24300.0
 05 11 2024  17 52  03.9083 19156.4 -14952.7 -37.9741 24301.2
 05 11 2024  17 53  03.9103 19156.6 -14955.1 -37.9782 24302.9
 05 11 2024  17 54  03.9135 19157.3 -14955.8 -37.9785 24303.8
 05 11 2024  17 55  03.9155 19157.4 -14956.3 -37.9794 24304.2
 05 11 2024  17 56  03.9151 19157.0 -14985.0 -38.0332 24321.6
 05 11 2024  17 57  03.9171 19157.3 -14990.0 -38.0419 24324.9
 05 11 2024  17 58  03.9182 19157.4 -14983.4 -38.0296 24320.9
 05 11 2024  17 59  03.9191 19157.3 -14982.5 -38.0280 24320.3
 05 11 2024  18 00  03.9197 19156.9 -14976.1 -38.0168 24316.1
 05 11 2024  18 01  03.9203 19156.4 -14981.4 -38.0273 24318.9
 05 11 2024  18 02  03.9217 19156.4 -14974.6 -38.0147 24314.7
 05 11 2024  18 03  03.9219 19155.9 -14972.8 -38.0122 24313.2
 05 11 2024  18 04  03.9206 19155.2 -14962.7 -37.9944 24306.4
 05 11 2024  18 05  03.9214 19155.7 -14956.5 -37.9821 24303.0
 05 11 2024  18 06  03.9220 19156.0 -14951.3 -37.9721 24300.1
 05 11 2024  18 07  03.9199 19155.7 -14951.9 -37.9736 24300.2
 05 11 2024  18 08  03.9199 19156.4 -14967.5 -38.0015 24310.4
 05 11 2024  18 09  03.9210 19157.2 -14954.6 -37.9765 24303.1
 05 11 2024  18 10  03.9194 19156.7 -14951.6 -37.9715 24300.8
 05 11 2024  18 11  03.9201 19156.9 -14949.6 -37.9675 24299.7
 05 11 2024  18 12  03.9202 19156.7 -14949.6 -37.9678 24299.6
 05 11 2024  18 13  03.9217 19157.1 -14949.7 -37.9675 24299.9
 05 11 2024  18 14  03.9196 19156.4 -14949.9 -37.9688 24299.6
 05 11 2024  18 15  03.9186 19156.0 -14950.2 -37.9700 24299.4
 05 11 2024  18 16  03.9187 19156.1 -14950.9 -37.9711 24299.9
 05 11 2024  18 17  03.9192 19156.6 -14952.6 -37.9736 24301.3
 05 11 2024  18 18  03.9197 19157.1 -14952.4 -37.9724 24301.6
 05 11 2024  18 19  03.9205 19157.7 -14951.9 -37.9706 24301.8
 05 11 2024  18 20  03.9214 19158.2 -14955.6 -37.9768 24304.4
 05 11 2024  18 21  03.9211 19158.2 -14953.0 -37.9720 24302.8
 05 11 2024  18 22  03.9204 19157.8 -14951.5 -37.9697 24301.6
 05 11 2024  18 23  03.9196 19157.2 -14951.6 -37.9708 24301.3
 05 11 2024  18 24  03.9181 19156.7 -14951.9 -37.9722 24301.0
 05 11 2024  18 25  03.9169 19156.1 -14952.2 -37.9736 24300.7
 05 11 2024  18 26  03.9143 19154.1 -14952.6 -37.9772 24299.3
 05 11 2024  18 27  03.9111 19152.5 -14953.1 -37.9804 24298.4
 05 11 2024  18 28  03.9101 19152.1 -14953.7 -37.9821 24298.5
 05 11 2024  18 29  03.9102 19151.6 -14954.1 -37.9837 24298.3
 05 11 2024  18 30  03.9102 19151.2 -14954.5 -37.9851 24298.3
 05 11 2024  18 31  03.9091 19150.2 -14954.9 -37.9871 24297.7
 05 11 2024  18 32  03.9102 19150.6 -14955.2 -37.9870 24298.2
 05 11 2024  18 33  03.9131 19151.5 -14955.3 -37.9860 24299.0
 05 11 2024  18 34  03.9166 19153.2 -14955.3 -37.9836 24300.4
 05 11 2024  18 35  03.9189 19154.2 -14955.3 -37.9820 24301.1
 05 11 2024  18 36  03.9196 19154.4 -14955.2 -37.9817 24301.2
 05 11 2024  18 37  03.9200 19154.3 -14955.3 -37.9819 24301.2
 05 11 2024  18 38  03.9226 19154.9 -14955.2 -37.9810 24301.6
 05 11 2024  18 39  03.9246 19155.5 -14955.2 -37.9799 24302.1
 05 11 2024  18 40  03.9258 19156.3 -14955.1 -37.9786 24302.6
 05 11 2024  18 41  03.9256 19156.3 -14955.0 -37.9786 24302.6
 05 11 2024  18 42  03.9269 19156.7 -14957.1 -37.9818 24304.1
 05 11 2024  18 43  03.9296 19157.6 -14956.9 -37.9802 24304.8
 05 11 2024  18 44  03.9321 19158.8 -14954.9 -37.9745 24304.5
 05 11 2024  18 45  03.9340 19159.3 -14954.6 -37.9734 24304.7
 05 11 2024  18 46  03.9342 19159.0 -14954.5 -37.9736 24304.4
 05 11 2024  18 47  03.9348 19159.5 -14954.5 -37.9729 24304.8
 05 11 2024  18 48  03.9340 19158.8 -14961.4 -37.9867 24308.5
 05 11 2024  18 49  03.9322 19157.8 -14958.1 -37.9821 24305.6
 05 11 2024  18 50  03.9306 19156.2 -14955.4 -37.9794 24302.7
 05 11 2024  18 51  03.9276 19154.1 -14955.8 -37.9832 24301.4
 05 11 2024  18 52  03.9256 19153.1 -14956.2 -37.9854 24300.8
 05 11 2024  18 53  03.9219 19151.8 -14956.8 -37.9883 24300.1
 05 11 2024  18 54  03.9210 19150.5 -14957.7 -37.9918 24299.7
 05 11 2024  18 55  03.9198 19149.7 -14958.0 -37.9937 24299.2
 05 11 2024  18 56  03.9198 19149.1 -14957.9 -37.9944 24298.7
 05 11 2024  18 57  03.9185 19148.3 -14958.3 -37.9962 24298.3
 05 11 2024  18 58  03.9180 19147.4 -14958.7 -37.9982 24297.8
 05 11 2024  18 59  03.9195 19147.4 -14959.1 -37.9990 24298.1
 05 11 2024  19 00  03.9217 19148.5 -14959.3 -37.9977 24299.1
 05 11 2024  19 01  03.9242 19149.8 -14959.6 -37.9965 24300.3
 05 11 2024  19 02  03.9272 19150.5 -14959.6 -37.9953 24300.9
 05 11 2024  19 03  03.9287 19150.7 -14959.6 -37.9951 24301.0
 05 11 2024  19 04  03.9299 19151.5 -14959.5 -37.9939 24301.6
 05 11 2024  19 05  03.9320 19152.5 -14959.6 -37.9924 24302.4
 05 11 2024  19 06  03.9333 19153.2 -14993.5 -38.0545 24323.8
 05 11 2024  19 07  03.9340 19153.5 -15001.0 -38.0680 24328.7
 05 11 2024  19 08  03.9342 19153.7 -15002.0 -38.0695 24329.4
 05 11 2024  19 09  03.9337 19153.4 -14999.7 -38.0657 24327.8
 05 11 2024  19 10  03.9325 19153.0 -14999.0 -38.0649 24327.1
 05 11 2024  19 11  03.9320 19152.5 -14984.3 -38.0385 24317.6
 05 11 2024  19 12  03.9317 19152.3 -14972.1 -38.0161 24310.0
 05 11 2024  19 13  03.9297 19151.7 -14983.8 -38.0387 24316.7
 05 11 2024  19 14  03.9286 19151.3 -14987.6 -38.0463 24318.8
 05 11 2024  19 15  03.9266 19150.4 -14982.4 -38.0379 24314.8
 05 11 2024  19 16  03.9249 19149.6 -14984.1 -38.0423 24315.2
 05 11 2024  19 17  03.9234 19148.9 -14981.9 -38.0392 24313.3
 05 11 2024  19 18  03.9226 19148.5 -14967.0 -38.0120 24303.8
 05 11 2024  19 19  03.9201 19147.6 -14962.5 -38.0051 24300.3
 05 11 2024  19 20  03.9197 19147.4 -14962.4 -38.0052 24300.1
 05 11 2024  19 21  03.9217 19148.1 -14962.6 -38.0046 24300.8
 05 11 2024  19 22  03.9231 19148.5 -14962.8 -38.0043 24301.3
 05 11 2024  19 23  03.9232 19149.0 -14962.9 -38.0038 24301.7
 05 11 2024  19 24  03.9251 19149.5 -14962.9 -38.0030 24302.2
 05 11 2024  19 25  03.9287 19150.5 -14962.9 -38.0015 24302.8
 05 11 2024  19 26  03.9262 19152.6 -14962.2 -37.9972 24304.1
 05 11 2024  19 27  03.9278 19152.2 -14962.9 -37.9991 24304.2
 05 11 2024  19 28  03.9270 19152.2 -14963.0 -37.9992 24304.2
 05 11 2024  19 29  03.9286 19154.0 -14962.1 -37.9949 24305.1
 05 11 2024  19 30  03.9277 19150.0 -14963.0 -38.0024 24302.6
 05 11 2024  19 31  03.9293 19150.7 -14963.5 -38.0024 24303.4
 05 11 2024  19 32  03.9300 19151.2 -14963.5 -38.0017 24303.8
 05 11 2024  19 33  03.9317 19152.1 -14963.6 -38.0005 24304.6
 05 11 2024  19 34  03.9349 19153.5 -14963.5 -37.9984 24305.6
 05 11 2024  19 35  03.9365 19154.1 -14963.4 -37.9972 24306.0
 05 11 2024  19 36  03.9369 19154.1 -14963.3 -37.9970 24306.0
 05 11 2024  19 37  03.9377 19154.4 -14963.3 -37.9966 24306.2
 05 11 2024  19 38  03.9372 19154.5 -14963.3 -37.9965 24306.2
 05 11 2024  19 39  03.9378 19154.8 -14963.4 -37.9962 24306.6
 05 11 2024  19 40  03.9380 19155.2 -14963.4 -37.9957 24306.9
 05 11 2024  19 41  03.9373 19155.1 -14963.5 -37.9961 24306.9
 05 11 2024  19 42  03.9356 19154.6 -14963.7 -37.9971 24306.6
 05 11 2024  19 43  03.9342 19154.4 -14964.0 -37.9979 24306.6
 05 11 2024  19 44  03.9319 19153.7 -14964.3 -37.9994 24306.3
 05 11 2024  19 45  03.9296 19153.0 -14964.6 -38.0010 24305.9
 05 11 2024  19 46  03.9274 19152.6 -14964.9 -38.0023 24305.8
 05 11 2024  19 47  03.9252 19151.8 -14965.3 -38.0042 24305.4
 05 11 2024  19 48  03.9229 19150.8 -14965.8 -38.0065 24304.9
 05 11 2024  19 49  03.9211 19150.3 -14966.2 -38.0080 24304.8
 05 11 2024  19 50  03.9191 19149.3 -14966.8 -38.0106 24304.3
 05 11 2024  19 51  03.9176 19149.0 -14967.1 -38.0116 24304.3
 05 11 2024  19 52  03.9168 19148.7 -14967.5 -38.0128 24304.3
 05 11 2024  19 53  03.9154 19148.4 -14967.9 -38.0139 24304.4
 05 11 2024  19 54  03.9150 19148.7 -14968.3 -38.0141 24304.8
 05 11 2024  19 55  03.9149 19148.6 -14968.5 -38.0147 24304.9
 05 11 2024  19 56  03.9144 19148.4 -14968.8 -38.0155 24304.9
 05 11 2024  19 57  03.9133 19147.9 -14969.1 -38.0168 24304.7
 05 11 2024  19 58  03.9115 19147.1 -14969.4 -38.0186 24304.1
 05 11 2024  19 59  03.9105 19146.9 -14969.8 -38.0196 24304.3
 05 11 2024  20 00  03.9101 19146.7 -14970.1 -38.0203 24304.3
 05 11 2024  20 01  03.9092 19146.4 -14970.4 -38.0213 24304.3
 05 11 2024  20 02  03.9089 19146.5 -14970.6 -38.0218 24304.5
 05 11 2024  20 03  03.9084 19146.5 -14970.9 -38.0222 24304.6
 05 11 2024  20 04  03.9077 19146.2 -14971.1 -38.0230 24304.6
 05 11 2024  20 05  03.9072 19145.7 -14971.3 -38.0241 24304.3
 05 11 2024  20 06  03.9060 19145.1 -14971.6 -38.0256 24304.0
 05 11 2024  20 07  03.9050 19144.7 -14971.9 -38.0267 24303.8
 05 11 2024  20 08  03.9052 19144.8 -14972.1 -38.0269 24304.1
 05 11 2024  20 09  03.9059 19144.9 -14972.4 -38.0273 24304.3
 05 11 2024  20 10  03.9060 19145.3 -14972.5 -38.0268 24304.7
 05 11 2024  20 11  03.9064 19145.5 -14972.5 -38.0265 24304.9
 05 11 2024  20 12  03.9060 19145.6 -14972.6 -38.0267 24304.9
 05 11 2024  20 13  03.9063 19145.8 -14972.6 -38.0266 24305.1
 05 11 2024  20 14  03.9060 19145.5 -14972.7 -38.0270 24305.0
 05 11 2024  20 15  03.9046 19144.9 -14972.9 -38.0283 24304.6
 05 11 2024  20 16  03.9038 19144.3 -14973.0 -38.0294 24304.3
 05 11 2024  20 17  03.9021 19143.8 -14973.2 -38.0305 24304.0
 05 11 2024  20 18  03.9031 19143.6 -14973.4 -38.0311 24304.0
 05 11 2024  20 19  03.9038 19142.9 -14973.5 -38.0323 24303.5
 05 11 2024  20 20  03.9030 19142.5 -14973.7 -38.0333 24303.2
 05 11 2024  20 21  03.9037 19143.0 -14973.8 -38.0327 24303.7
 05 11 2024  20 22  03.9062 19143.5 -14973.8 -38.0320 24304.1
 05 11 2024  20 23  03.9077 19143.8 -14973.8 -38.0315 24304.3
 05 11 2024  20 24  03.9078 19143.7 -14973.7 -38.0316 24304.2
 05 11 2024  20 25  03.9083 19143.1 -14973.8 -38.0326 24303.8
 05 11 2024  20 26  03.9094 19143.2 -14973.9 -38.0326 24303.9
 05 11 2024  20 27  03.9097 19143.0 -14974.1 -38.0332 24303.8
 05 11 2024  20 28  03.9111 19143.0 -14974.3 -38.0336 24304.0
 05 11 2024  20 29  03.9131 19144.1 -14974.1 -38.0315 24304.7
 05 11 2024  20 30  03.9142 19144.9 -14973.6 -38.0297 24305.0
 05 11 2024  20 31  03.9139 19144.4 -14973.7 -38.0305 24304.7
 05 11 2024  20 32  03.9141 19144.7 -14973.5 -38.0296 24304.9
 05 11 2024  20 33  03.9149 19144.5 -14973.6 -38.0300 24304.8
 05 11 2024  20 34  03.9141 19144.3 -14973.7 -38.0307 24304.6
 05 11 2024  20 35  03.9135 19143.7 -14973.7 -38.0316 24304.2
 05 11 2024  20 36  03.9127 19143.0 -14973.7 -38.0325 24303.6
 05 11 2024  20 37  03.9123 19142.4 -14974.0 -38.0338 24303.3
 05 11 2024  20 38  03.9129 19142.3 -14974.0 -38.0341 24303.3
 05 11 2024  20 39  03.9140 19142.4 -14974.0 -38.0338 24303.3
 05 11 2024  20 40  03.9135 19142.0 -14974.0 -38.0345 24303.1
 05 11 2024  20 41  03.9129 19141.6 -14974.1 -38.0352 24302.8
 05 11 2024  20 42  03.9123 19141.3 -14974.2 -38.0360 24302.6
 05 11 2024  20 43  03.9114 19140.7 -14974.4 -38.0373 24302.2
 05 11 2024  20 44  03.9108 19140.5 -14974.6 -38.0380 24302.2
 05 11 2024  20 45  03.9094 19139.9 -14974.7 -38.0389 24301.8
 05 11 2024  20 46  03.9086 19139.4 -14974.8 -38.0397 24301.5
 05 11 2024  20 47  03.9077 19138.7 -14975.0 -38.0411 24301.0
 05 11 2024  20 48  03.9072 19138.1 -14975.2 -38.0425 24300.7
 05 11 2024  20 49  03.9071 19138.3 -14975.3 -38.0424 24300.9
 05 11 2024  20 50  03.9074 19137.6 -14975.2 -38.0431 24300.3
 05 11 2024  20 51  03.9067 19136.9 -14975.3 -38.0444 24299.8
 05 11 2024  20 52  03.9045 19136.0 -14975.5 -38.0460 24299.2
 05 11 2024  20 53  03.9034 19135.2 -14975.7 -38.0474 24298.7
 05 11 2024  20 54  03.9032 19135.0 -14975.9 -38.0482 24298.6
 05 11 2024  20 55  03.9016 19134.3 -14976.0 -38.0495 24298.2
 05 11 2024  20 56  03.8993 19133.6 -14976.2 -38.0508 24297.8
 05 11 2024  20 57  03.8962 19132.3 -14976.4 -38.0532 24296.9
 05 11 2024  20 58  03.8955 19131.9 -14976.7 -38.0543 24296.7
 05 11 2024  20 59  03.8961 19131.7 -14976.9 -38.0548 24296.7
 05 11 2024  21 00  03.8954 19131.3 -14977.1 -38.0558 24296.5
 05 11 2024  21 01  03.8949 19131.4 -14977.2 -38.0558 24296.6
 05 11 2024  21 02  03.8941 19131.5 -14977.2 -38.0557 24296.7
 05 11 2024  21 03  03.8960 19132.2 -14977.2 -38.0548 24297.2
 05 11 2024  21 04  03.8967 19132.4 -14977.2 -38.0543 24297.4
 05 11 2024  21 05  03.8974 19132.8 -14977.1 -38.0538 24297.7
 05 11 2024  21 06  03.8981 19132.9 -14977.1 -38.0535 24297.7
 05 11 2024  21 07  03.8982 19133.1 -14977.1 -38.0532 24297.9
 05 11 2024  21 08  03.8985 19133.1 -14977.1 -38.0531 24297.9
 05 11 2024  21 09  03.8979 19132.5 -14977.1 -38.0542 24297.5
 05 11 2024  21 10  03.8972 19132.6 -14977.2 -38.0541 24297.6
 05 11 2024  21 11  03.8960 19132.1 -14977.3 -38.0550 24297.3
 05 11 2024  21 12  03.8935 19130.7 -14977.5 -38.0574 24296.3
 05 11 2024  21 13  03.8907 19129.5 -14977.7 -38.0595 24295.5
 05 11 2024  21 14  03.8889 19128.6 -14978.1 -38.0616 24295.0
 05 11 2024  21 15  03.8869 19127.8 -14978.3 -38.0632 24294.5
 05 11 2024  21 16  03.8864 19127.1 -14978.5 -38.0646 24294.0
 05 11 2024  21 17  03.8859 19126.1 -14978.7 -38.0663 24293.4
 05 11 2024  21 18  03.8846 19125.3 -14978.9 -38.0679 24292.9
 05 11 2024  21 19  03.8845 19124.9 -14979.0 -38.0687 24292.7
 05 11 2024  21 20  03.8846 19124.3 -14979.1 -38.0697 24292.3
 05 11 2024  21 21  03.8844 19124.0 -14979.2 -38.0705 24292.0
 05 11 2024  21 22  03.8845 19123.9 -14979.4 -38.0707 24292.1
 05 11 2024  21 23  03.8854 19124.3 -14979.3 -38.0702 24292.3
 05 11 2024  21 24  03.8866 19124.3 -14979.4 -38.0702 24292.4
 05 11 2024  21 25  03.8861 19123.8 -14979.4 -38.0710 24292.0
 05 11 2024  21 26  03.8853 19123.6 -14979.4 -38.0713 24291.9
 05 11 2024  21 27  03.8854 19123.8 -14979.4 -38.0711 24292.0
 05 11 2024  21 28  03.8856 19123.8 -14979.4 -38.0711 24292.0
 05 11 2024  21 29  03.8859 19123.8 -14979.5 -38.0712 24292.0
 05 11 2024  21 30  03.8865 19123.8 -14979.5 -38.0712 24292.0
 05 11 2024  21 31  03.8872 19123.8 -14979.4 -38.0712 24292.0
 05 11 2024  21 32  03.8864 19123.2 -14979.4 -38.0719 24291.5
 05 11 2024  21 33  03.8863 19122.9 -14979.4 -38.0724 24291.3
 05 11 2024  21 34  03.8861 19122.6 -14979.5 -38.0729 24291.1
 05 11 2024  21 35  03.8856 19122.0 -14979.6 -38.0739 24290.7
 05 11 2024  21 36  03.8846 19121.4 -14979.6 -38.0749 24290.2
 05 11 2024  21 37  03.8835 19120.8 -14979.7 -38.0759 24289.9
 05 11 2024  21 38  03.8834 19120.7 -14979.8 -38.0764 24289.8
 05 11 2024  21 39  03.8839 19120.4 -14979.9 -38.0768 24289.7
 05 11 2024  21 40  03.8843 19120.1 -14979.9 -38.0774 24289.4
 05 11 2024  21 41  03.8846 19120.1 -14980.0 -38.0774 24289.5
 05 11 2024  21 42  03.8842 19119.9 -14980.0 -38.0778 24289.3
 05 11 2024  21 43  03.8855 19120.1 -14980.0 -38.0776 24289.5
 05 11 2024  21 44  03.8853 19119.8 -14980.0 -38.0780 24289.3
 05 11 2024  21 45  03.8843 19119.1 -14980.1 -38.0791 24288.7
 05 11 2024  21 46  03.8839 19118.7 -14980.1 -38.0797 24288.5
 05 11 2024  21 47  03.8836 19118.6 -14980.2 -38.0801 24288.4
 05 11 2024  21 48  03.8837 19118.5 -14980.3 -38.0804 24288.4
 05 11 2024  21 49  03.8846 19118.7 -14980.3 -38.0801 24288.5
 05 11 2024  21 50  03.8846 19118.7 -14980.3 -38.0801 24288.5
 05 11 2024  21 51  03.8846 19118.7 -14980.3 -38.0800 24288.5
 05 11 2024  21 52  03.8848 19118.7 -14980.3 -38.0801 24288.5
 05 11 2024  21 53  03.8844 19118.2 -14980.3 -38.0809 24288.2
 05 11 2024  21 54  03.8842 19117.8 -14980.4 -38.0815 24287.9
 05 11 2024  21 55  03.8844 19117.9 -14980.4 -38.0815 24288.0
 05 11 2024  21 56  03.8838 19117.5 -14980.5 -38.0822 24287.7
 05 11 2024  21 57  03.8842 19117.6 -14980.6 -38.0822 24287.9
 05 11 2024  21 58  03.8852 19117.9 -14980.6 -38.0818 24288.1
 05 11 2024  21 59  03.8853 19117.8 -14980.6 -38.0819 24288.0
 05 11 2024  22 00  03.8852 19117.8 -14980.6 -38.0821 24288.0
 05 11 2024  22 01  03.8852 19117.7 -14980.7 -38.0822 24288.0
 05 11 2024  22 02  03.8851 19117.7 -14980.8 -38.0824 24288.0
 05 11 2024  22 03  03.8851 19117.8 -14980.8 -38.0824 24288.2
 05 11 2024  22 04  03.8855 19117.9 -14980.9 -38.0822 24288.3
 05 11 2024  22 05  03.8862 19118.1 -14980.9 -38.0820 24288.5
 05 11 2024  22 06  03.8861 19118.2 -14981.0 -38.0820 24288.6
 05 11 2024  22 07  03.8859 19118.3 -14981.0 -38.0820 24288.7
 05 11 2024  22 08  03.8854 19118.3 -14981.1 -38.0822 24288.7
 05 11 2024  22 09  03.8856 19118.2 -14981.2 -38.0825 24288.7
 05 11 2024  22 10  03.8850 19118.0 -14981.3 -38.0830 24288.7
 05 11 2024  22 11  03.8837 19117.6 -14981.4 -38.0838 24288.4
 05 11 2024  22 12  03.8815 19116.8 -14981.6 -38.0854 24287.8
 05 11 2024  22 13  03.8794 19115.9 -14981.8 -38.0870 24287.3
 05 11 2024  22 14  03.8776 19115.0 -14982.1 -38.0887 24286.8
 05 11 2024  22 15  03.8762 19114.1 -14982.3 -38.0905 24286.2
 05 11 2024  22 16  03.8754 19113.4 -14982.5 -38.0919 24285.7
 05 11 2024  22 17  03.8745 19112.5 -14982.7 -38.0935 24285.1
 05 11 2024  22 18  03.8734 19111.6 -14982.8 -38.0952 24284.5
 05 11 2024  22 19  03.8726 19110.9 -14983.0 -38.0965 24284.0
 05 11 2024  22 20  03.8715 19110.0 -14983.1 -38.0980 24283.5
 05 11 2024  22 21  03.8711 19109.4 -14983.3 -38.0992 24283.0
 05 11 2024  22 22  03.8710 19109.0 -14983.4 -38.0998 24282.8
 05 11 2024  22 23  03.8716 19109.2 -14983.4 -38.0997 24283.0
 05 11 2024  22 24  03.8719 19108.9 -14983.4 -38.1000 24282.8
 05 11 2024  22 25  03.8714 19108.6 -14983.4 -38.1006 24282.5
 05 11 2024  22 26  03.8702 19107.6 -14983.4 -38.1020 24281.8
 05 11 2024  22 27  03.8693 19106.7 -14983.5 -38.1034 24281.1
 05 11 2024  22 28  03.8684 19105.6 -14983.6 -38.1053 24280.2
 05 11 2024  22 29  03.8671 19104.6 -14983.7 -38.1068 24279.6
 05 11 2024  22 30  03.8670 19104.5 -14983.7 -38.1071 24279.5
 05 11 2024  22 31  03.8677 19104.8 -14983.8 -38.1068 24279.8
 05 11 2024  22 32  03.8683 19105.1 -14983.7 -38.1062 24280.0
 05 11 2024  22 33  03.8689 19105.3 -14983.6 -38.1058 24280.1
 05 11 2024  22 34  03.8691 19105.2 -14983.6 -38.1057 24280.0
 05 11 2024  22 35  03.8696 19105.5 -14983.5 -38.1052 24280.2
 05 11 2024  22 36  03.8700 19105.8 -14983.4 -38.1047 24280.3
 05 11 2024  22 37  03.8693 19105.5 -14983.3 -38.1049 24280.1
 05 11 2024  22 38  03.8687 19105.3 -14983.4 -38.1053 24279.9
 05 11 2024  22 39  03.8681 19104.9 -14983.4 -38.1059 24279.6
 05 11 2024  22 40  03.8685 19105.0 -14983.4 -38.1058 24279.7
 05 11 2024  22 41  03.8687 19105.0 -14983.4 -38.1058 24279.7
 05 11 2024  22 42  03.8688 19105.3 -14983.4 -38.1054 24279.9
 05 11 2024  22 43  03.8687 19105.5 -14983.4 -38.1051 24280.1
 05 11 2024  22 44  03.8693 19106.0 -14983.4 -38.1043 24280.5
 05 11 2024  22 45  03.8705 19106.7 -14983.4 -38.1033 24281.0
 05 11 2024  22 46  03.8716 19107.3 -14983.3 -38.1023 24281.5
 05 11 2024  22 47  03.8713 19106.9 -14983.3 -38.1028 24281.2
 05 11 2024  22 48  03.8718 19106.9 -14983.3 -38.1028 24281.1
 05 11 2024  22 49  03.8720 19107.0 -14983.3 -38.1027 24281.2
 05 11 2024  22 50  03.8717 19106.8 -14983.4 -38.1031 24281.1
 05 11 2024  22 51  03.8714 19106.6 -14983.5 -38.1036 24280.9
 05 11 2024  22 52  03.8710 19106.2 -14983.5 -38.1042 24280.7
 05 11 2024  22 53  03.8701 19105.9 -14983.5 -38.1048 24280.4
 05 11 2024  22 54  03.8685 19105.0 -14983.6 -38.1062 24279.8
 05 11 2024  22 55  03.8671 19105.0 -14983.7 -38.1063 24279.9
 05 11 2024  22 56  03.8659 19105.0 -14983.7 -38.1064 24279.9
 05 11 2024  22 57  03.8651 19105.8 -14983.8 -38.1054 24280.5
 05 11 2024  22 58  03.8643 19106.0 -14983.8 -38.1049 24280.7
 05 11 2024  22 59  03.8635 19104.9 -14983.8 -38.1066 24279.9
 05 11 2024  23 00  03.8618 19104.4 -14983.9 -38.1075 24279.5
 05 11 2024  23 01  03.8613 19104.2 -14984.0 -38.1080 24279.4
 05 11 2024  23 02  03.8608 19104.0 -14984.0 -38.1084 24279.2
 05 11 2024  23 03  03.8605 19103.5 -14984.0 -38.1091 24278.8
 05 11 2024  23 04  03.8600 19103.6 -14984.0 -38.1090 24278.9
 05 11 2024  23 05  03.8591 19103.1 -14984.0 -38.1097 24278.5
 05 11 2024  23 06  03.8581 19102.9 -14984.0 -38.1099 24278.4
 05 11 2024  23 07  03.8578 19102.7 -14983.9 -38.1102 24278.2
 05 11 2024  23 08  03.8572 19102.9 -14983.9 -38.1098 24278.4
 05 11 2024  23 09  03.8567 19103.2 -14983.9 -38.1093 24278.6
 05 11 2024  23 10  03.8561 19103.7 -14983.8 -38.1085 24278.9
 05 11 2024  23 11  03.8551 19104.5 -14983.7 -38.1072 24279.5
 05 11 2024  23 12  03.8540 19104.3 -14983.7 -38.1073 24279.3
 05 11 2024  23 13  03.8540 19104.9 -14983.6 -38.1064 24279.7
 05 11 2024  23 14  03.8553 19106.3 -14983.6 -38.1044 24280.8
 05 11 2024  23 15  03.8554 19106.5 -14983.6 -38.1040 24280.9
 05 11 2024  23 16  03.8543 19105.8 -14983.5 -38.1048 24280.4
 05 11 2024  23 17  03.8544 19105.7 -14983.5 -38.1049 24280.3
 05 11 2024  23 18  03.8540 19106.1 -14983.5 -38.1043 24280.6
 05 11 2024  23 19  03.8540 19106.0 -14983.4 -38.1044 24280.5
 05 11 2024  23 20  03.8543 19106.0 -14983.4 -38.1043 24280.4
 05 11 2024  23 21  03.8547 19106.4 -14983.3 -38.1037 24280.7
 05 11 2024  23 22  03.8552 19106.8 -14983.3 -38.1030 24281.0
 05 11 2024  23 23  03.8555 19106.8 -14983.2 -38.1028 24280.9
 05 11 2024  23 24  03.8558 19106.7 -14983.1 -38.1027 24280.8
 05 11 2024  23 25  03.8563 19107.3 -14983.0 -38.1017 24281.2
 05 11 2024  23 26  03.8568 19107.8 -14982.9 -38.1007 24281.6
 05 11 2024  23 27  03.8573 19108.1 -14982.8 -38.1001 24281.8
 05 11 2024  23 28  03.8580 19108.5 -14982.7 -38.0994 24282.0
 05 11 2024  23 29  03.8586 19108.4 -14982.6 -38.0992 24281.9
 05 11 2024  23 30  03.8600 19109.0 -14982.5 -38.0983 24282.2
 05 11 2024  23 31  03.8617 19110.2 -14982.3 -38.0961 24283.1
 05 11 2024  23 32  03.8633 19111.3 -14982.0 -38.0941 24283.8
 05 11 2024  23 33  03.8652 19112.4 -14981.8 -38.0919 24284.5
 05 11 2024  23 34  03.8664 19113.5 -14981.5 -38.0900 24285.2
 05 11 2024  23 35  03.8673 19114.3 -14981.3 -38.0883 24285.8
 05 11 2024  23 36  03.8677 19114.8 -14981.2 -38.0874 24286.0
 05 11 2024  23 37  03.8680 19115.1 -14981.0 -38.0866 24286.2
 05 11 2024  23 38  03.8682 19115.2 -14980.9 -38.0863 24286.2
 05 11 2024  23 39  03.8682 19115.1 -14980.8 -38.0862 24286.1
 05 11 2024  23 40  03.8682 19114.8 -14980.7 -38.0865 24285.8
 05 11 2024  23 41  03.8681 19114.6 -14980.7 -38.0868 24285.6
 05 11 2024  23 42  03.8683 19114.7 -14980.6 -38.0865 24285.6
 05 11 2024  23 43  03.8685 19114.8 -14980.6 -38.0863 24285.7
 05 11 2024  23 44  03.8685 19115.0 -14980.6 -38.0860 24285.8
 05 11 2024  23 45  03.8685 19115.0 -14980.6 -38.0860 24285.8
 05 11 2024  23 46  03.8683 19114.6 -14980.6 -38.0865 24285.5
 05 11 2024  23 47  03.8685 19114.3 -14980.6 -38.0871 24285.3
 05 11 2024  23 48  03.8689 19114.1 -14980.6 -38.0874 24285.1
 05 11 2024  23 49  03.8694 19114.3 -14980.7 -38.0872 24285.3
 05 11 2024  23 50  03.8697 19114.3 -14980.7 -38.0871 24285.4
 05 11 2024  23 51  03.8698 19114.6 -14980.7 -38.0868 24285.6
 05 11 2024  23 52  03.8700 19114.6 -14980.7 -38.0869 24285.6
 05 11 2024  23 53  03.8701 19114.6 -14980.8 -38.0869 24285.6
 05 11 2024  23 54  03.8706 19114.6 -14980.8 -38.0870 24285.7
 05 11 2024  23 55  03.8708 19115.0 -14980.9 -38.0866 24286.0
 05 11 2024  23 56  03.8708 19115.5 -14980.9 -38.0859 24286.4
 05 11 2024  23 57  03.8713 19115.7 -14981.0 -38.0857 24286.6
 05 11 2024  23 58  03.8713 19115.9 -14981.0 -38.0855 24286.8
 05 11 2024  23 59  03.8716 19115.9 -14981.1 -38.0856 24286.8
