CHILLAN EMBRACE-14 <310> 1 Min. Reported data

 DD MM YYYY  HH MM   D(Deg)  H(nT)   Z(nT)   I(Deg)   F(nT)

 06 11 2023  00 00  04.0033 19095.4 -14995.5 -38.1423 24279.6
 06 11 2023  00 01  04.0029 19095.1 -14995.7 -38.1431 24279.5
 06 11 2023  00 02  04.0026 19094.8 -14995.9 -38.1439 24279.4
 06 11 2023  00 03  04.0021 19095.2 -14996.1 -38.1437 24279.8
 06 11 2023  00 04  04.0018 19095.6 -14996.3 -38.1434 24280.2
 06 11 2023  00 05  04.0012 19095.5 -14996.4 -38.1438 24280.3
 06 11 2023  00 06  04.0008 19095.5 -14996.6 -38.1442 24280.4
 06 11 2023  00 07  04.0007 19095.9 -14996.8 -38.1439 24280.8
 06 11 2023  00 08  04.0005 19096.4 -14996.9 -38.1434 24281.3
 06 11 2023  00 09  04.0000 19096.4 -14997.1 -38.1436 24281.4
 06 11 2023  00 10  03.9987 19096.3 -14997.2 -38.1440 24281.4
 06 11 2023  00 11  03.9976 19096.2 -14997.4 -38.1446 24281.4
 06 11 2023  00 12  03.9968 19096.2 -14997.5 -38.1449 24281.5
 06 11 2023  00 13  03.9963 19096.2 -14997.7 -38.1452 24281.6
 06 11 2023  00 14  03.9959 19096.3 -14997.9 -38.1454 24281.8
 06 11 2023  00 15  03.9954 19096.5 -14998.0 -38.1454 24282.0
 06 11 2023  00 16  03.9948 19097.0 -14998.2 -38.1449 24282.5
 06 11 2023  00 17  03.9945 19097.6 -14998.3 -38.1442 24283.0
 06 11 2023  00 18  03.9942 19097.9 -14998.4 -38.1439 24283.4
 06 11 2023  00 19  03.9938 19098.4 -14998.5 -38.1435 24283.8
 06 11 2023  00 20  03.9933 19098.6 -14998.6 -38.1433 24284.1
 06 11 2023  00 21  03.9926 19098.7 -14998.7 -38.1433 24284.2
 06 11 2023  00 22  03.9916 19098.7 -14998.8 -38.1435 24284.2
 06 11 2023  00 23  03.9906 19098.5 -14998.9 -38.1440 24284.2
 06 11 2023  00 24  03.9898 19098.7 -14999.0 -38.1439 24284.4
 06 11 2023  00 25  03.9890 19099.1 -14999.1 -38.1437 24284.7
 06 11 2023  00 26  03.9884 19099.4 -14999.2 -38.1433 24285.1
 06 11 2023  00 27  03.9877 19099.8 -14999.3 -38.1429 24285.4
 06 11 2023  00 28  03.9863 19100.0 -14999.4 -38.1427 24285.7
 06 11 2023  00 29  03.9848 19100.1 -14999.5 -38.1428 24285.8
 06 11 2023  00 30  03.9835 19100.2 -14999.6 -38.1430 24285.9
 06 11 2023  00 31  03.9826 19100.4 -14999.8 -38.1430 24286.2
 06 11 2023  00 32  03.9820 19100.7 -14999.9 -38.1427 24286.5
 06 11 2023  00 33  03.9817 19101.0 -15000.0 -38.1425 24286.8
 06 11 2023  00 34  03.9812 19101.5 -15000.1 -38.1420 24287.3
 06 11 2023  00 35  03.9808 19102.0 -15000.2 -38.1414 24287.7
 06 11 2023  00 36  03.9806 19102.3 -15000.2 -38.1409 24287.9
 06 11 2023  00 37  03.9797 19102.7 -15000.3 -38.1405 24288.3
 06 11 2023  00 38  03.9791 19102.7 -15000.3 -38.1406 24288.3
 06 11 2023  00 39  03.9783 19103.0 -15000.4 -38.1402 24288.6
 06 11 2023  00 40  03.9780 19104.0 -15000.5 -38.1390 24289.4
 06 11 2023  00 41  03.9777 19104.7 -15000.5 -38.1379 24290.0
 06 11 2023  00 42  03.9775 19105.0 -15000.5 -38.1376 24290.3
 06 11 2023  00 43  03.9771 19105.2 -15000.6 -38.1374 24290.4
 06 11 2023  00 44  03.9766 19105.1 -15000.6 -38.1376 24290.4
 06 11 2023  00 45  03.9763 19104.9 -15000.7 -38.1380 24290.3
 06 11 2023  00 46  03.9762 19104.6 -15000.7 -38.1386 24290.1
 06 11 2023  00 47  03.9763 19104.5 -15000.8 -38.1387 24290.0
 06 11 2023  00 48  03.9764 19104.8 -15000.8 -38.1383 24290.3
 06 11 2023  00 49  03.9764 19105.3 -15000.8 -38.1376 24290.7
 06 11 2023  00 50  03.9759 19105.9 -15000.8 -38.1369 24291.1
 06 11 2023  00 51  03.9750 19106.3 -15000.9 -38.1363 24291.5
 06 11 2023  00 52  03.9737 19106.6 -15000.9 -38.1360 24291.8
 06 11 2023  00 53  03.9724 19107.2 -15001.0 -38.1354 24292.3
 06 11 2023  00 54  03.9712 19107.2 -15001.1 -38.1355 24292.4
 06 11 2023  00 55  03.9699 19107.1 -15001.3 -38.1360 24292.4
 06 11 2023  00 56  03.9685 19107.0 -15001.5 -38.1365 24292.4
 06 11 2023  00 57  03.9675 19106.9 -15001.7 -38.1369 24292.5
 06 11 2023  00 58  03.9665 19106.9 -15001.8 -38.1372 24292.5
 06 11 2023  00 59  03.9650 19106.9 -15002.0 -38.1376 24292.6
 06 11 2023  01 00  03.9637 19106.8 -15002.1 -38.1379 24292.7
 06 11 2023  01 01  03.9627 19106.8 -15002.3 -38.1382 24292.8
 06 11 2023  01 02  03.9617 19106.8 -15002.5 -38.1386 24292.9
 06 11 2023  01 03  03.9606 19106.7 -15002.7 -38.1391 24292.9
 06 11 2023  01 04  03.9595 19106.7 -15002.8 -38.1394 24293.0
 06 11 2023  01 05  03.9584 19106.6 -15003.0 -38.1398 24293.1
 06 11 2023  01 06  03.9572 19106.8 -15003.2 -38.1398 24293.3
 06 11 2023  01 07  03.9568 19107.3 -15003.3 -38.1394 24293.8
 06 11 2023  01 08  03.9562 19107.6 -15003.5 -38.1393 24294.1
 06 11 2023  01 09  03.9554 19107.8 -15003.6 -38.1392 24294.3
 06 11 2023  01 10  03.9551 19108.2 -15003.7 -38.1388 24294.7
 06 11 2023  01 11  03.9547 19108.5 -15003.8 -38.1386 24295.0
 06 11 2023  01 12  03.9545 19108.8 -15003.9 -38.1383 24295.3
 06 11 2023  01 13  03.9547 19108.8 -15003.9 -38.1384 24295.3
 06 11 2023  01 14  03.9549 19108.9 -15004.0 -38.1384 24295.5
 06 11 2023  01 15  03.9550 19108.9 -15004.1 -38.1384 24295.6
 06 11 2023  01 16  03.9544 19108.7 -15004.1 -38.1388 24295.4
 06 11 2023  01 17  03.9538 19108.5 -15004.2 -38.1393 24295.2
 06 11 2023  01 18  03.9534 19108.3 -15004.2 -38.1396 24295.1
 06 11 2023  01 19  03.9534 19108.4 -15004.3 -38.1395 24295.3
 06 11 2023  01 20  03.9531 19108.5 -15004.3 -38.1395 24295.3
 06 11 2023  01 21  03.9524 19108.5 -15004.4 -38.1396 24295.4
 06 11 2023  01 22  03.9522 19108.6 -15004.4 -38.1395 24295.5
 06 11 2023  01 23  03.9525 19108.7 -15004.4 -38.1394 24295.5
 06 11 2023  01 24  03.9522 19108.7 -15004.4 -38.1394 24295.6
 06 11 2023  01 25  03.9520 19108.6 -15004.4 -38.1396 24295.5
 06 11 2023  01 26  03.9517 19108.5 -15004.5 -38.1397 24295.5
 06 11 2023  01 27  03.9517 19108.5 -15004.5 -38.1398 24295.5
 06 11 2023  01 28  03.9519 19108.4 -15004.5 -38.1400 24295.3
 06 11 2023  01 29  03.9520 19108.3 -15004.5 -38.1400 24295.3
 06 11 2023  01 30  03.9523 19108.7 -15004.4 -38.1395 24295.6
 06 11 2023  01 31  03.9525 19109.3 -15004.4 -38.1386 24296.0
 06 11 2023  01 32  03.9524 19109.8 -15004.4 -38.1378 24296.4
 06 11 2023  01 33  03.9522 19109.9 -15004.4 -38.1375 24296.5
 06 11 2023  01 34  03.9520 19110.2 -15004.3 -38.1370 24296.7
 06 11 2023  01 35  03.9514 19110.3 -15004.3 -38.1369 24296.8
 06 11 2023  01 36  03.9507 19110.4 -15004.3 -38.1367 24296.9
 06 11 2023  01 37  03.9506 19110.7 -15004.3 -38.1364 24297.1
 06 11 2023  01 38  03.9506 19110.8 -15004.3 -38.1362 24297.1
 06 11 2023  01 39  03.9507 19110.5 -15004.3 -38.1366 24296.9
 06 11 2023  01 40  03.9511 19110.3 -15004.3 -38.1369 24296.7
 06 11 2023  01 41  03.9515 19110.0 -15004.3 -38.1373 24296.5
 06 11 2023  01 42  03.9519 19109.6 -15004.3 -38.1378 24296.2
 06 11 2023  01 43  03.9521 19109.1 -15004.2 -38.1384 24295.8
 06 11 2023  01 44  03.9526 19108.9 -15004.2 -38.1387 24295.6
 06 11 2023  01 45  03.9530 19108.9 -15004.2 -38.1388 24295.6
 06 11 2023  01 46  03.9539 19108.7 -15004.2 -38.1390 24295.4
 06 11 2023  01 47  03.9544 19108.9 -15004.1 -38.1386 24295.6
 06 11 2023  01 48  03.9549 19109.6 -15004.1 -38.1375 24296.1
 06 11 2023  01 49  03.9550 19109.7 -15004.1 -38.1373 24296.2
 06 11 2023  01 50  03.9548 19109.4 -15004.0 -38.1378 24295.9
 06 11 2023  01 51  03.9549 19109.2 -15004.1 -38.1380 24295.7
 06 11 2023  01 52  03.9547 19108.6 -15004.1 -38.1389 24295.3
 06 11 2023  01 53  03.9542 19108.2 -15004.1 -38.1395 24295.0
 06 11 2023  01 54  03.9540 19108.2 -15004.1 -38.1395 24295.0
 06 11 2023  01 55  03.9541 19108.3 -15004.1 -38.1394 24295.1
 06 11 2023  01 56  03.9536 19108.1 -15004.2 -38.1398 24294.9
 06 11 2023  01 57  03.9532 19107.8 -15004.2 -38.1404 24294.7
 06 11 2023  01 58  03.9527 19107.5 -15004.3 -38.1409 24294.6
 06 11 2023  01 59  03.9525 19107.4 -15004.3 -38.1411 24294.5
 06 11 2023  02 00  03.9523 19107.0 -15004.4 -38.1418 24294.3
 06 11 2023  02 01  03.9524 19107.1 -15004.4 -38.1418 24294.3
 06 11 2023  02 02  03.9526 19107.5 -15004.5 -38.1413 24294.6
 06 11 2023  02 03  03.9525 19107.3 -15004.5 -38.1416 24294.5
 06 11 2023  02 04  03.9525 19106.9 -15004.5 -38.1422 24294.2
 06 11 2023  02 05  03.9527 19106.4 -15004.5 -38.1429 24293.9
 06 11 2023  02 06  03.9527 19106.0 -15004.5 -38.1435 24293.5
 06 11 2023  02 07  03.9526 19105.7 -15004.5 -38.1440 24293.3
 06 11 2023  02 08  03.9522 19105.5 -15004.6 -38.1443 24293.2
 06 11 2023  02 09  03.9518 19105.4 -15004.6 -38.1446 24293.1
 06 11 2023  02 10  03.9518 19105.3 -15004.6 -38.1447 24293.1
 06 11 2023  02 11  03.9522 19105.6 -15004.6 -38.1443 24293.3
 06 11 2023  02 12  03.9525 19105.6 -15004.6 -38.1443 24293.3
 06 11 2023  02 13  03.9531 19105.6 -15004.6 -38.1443 24293.3
 06 11 2023  02 14  03.9535 19105.5 -15004.6 -38.1444 24293.1
 06 11 2023  02 15  03.9529 19105.2 -15004.6 -38.1449 24292.9
 06 11 2023  02 16  03.9525 19104.8 -15004.6 -38.1455 24292.7
 06 11 2023  02 17  03.9526 19105.0 -15004.7 -38.1453 24292.9
 06 11 2023  02 18  03.9531 19105.5 -15004.7 -38.1446 24293.3
 06 11 2023  02 19  03.9531 19105.8 -15004.7 -38.1442 24293.4
 06 11 2023  02 20  03.9527 19105.6 -15004.7 -38.1445 24293.3
 06 11 2023  02 21  03.9526 19105.5 -15004.7 -38.1447 24293.3
 06 11 2023  02 22  03.9526 19105.6 -15004.8 -38.1446 24293.3
 06 11 2023  02 23  03.9528 19105.7 -15004.8 -38.1444 24293.4
 06 11 2023  02 24  03.9528 19105.8 -15004.8 -38.1442 24293.5
 06 11 2023  02 25  03.9524 19106.0 -15004.8 -38.1441 24293.6
 06 11 2023  02 26  03.9519 19106.1 -15004.8 -38.1439 24293.8
 06 11 2023  02 27  03.9518 19106.3 -15004.8 -38.1436 24294.0
 06 11 2023  02 28  03.9522 19106.7 -15004.9 -38.1432 24294.3
 06 11 2023  02 29  03.9523 19106.9 -15004.9 -38.1429 24294.4
 06 11 2023  02 30  03.9518 19107.1 -15004.9 -38.1426 24294.6
 06 11 2023  02 31  03.9510 19106.8 -15004.9 -38.1430 24294.4
 06 11 2023  02 32  03.9504 19106.9 -15004.9 -38.1430 24294.5
 06 11 2023  02 33  03.9498 19106.8 -15005.0 -38.1432 24294.5
 06 11 2023  02 34  03.9477 19106.6 -15005.0 -38.1436 24294.3
 06 11 2023  02 35  03.9455 19106.2 -15005.2 -38.1445 24294.0
 06 11 2023  02 36  03.9426 19106.2 -15005.3 -38.1447 24294.1
 06 11 2023  02 37  03.9408 19106.7 -15005.4 -38.1442 24294.6
 06 11 2023  02 38  03.9385 19106.7 -15005.5 -38.1444 24294.7
 06 11 2023  02 39  03.9368 19106.7 -15005.7 -38.1447 24294.8
 06 11 2023  02 40  03.9359 19106.9 -15005.8 -38.1446 24295.0
 06 11 2023  02 41  03.9348 19106.9 -15005.9 -38.1448 24295.1
 06 11 2023  02 42  03.9326 19106.8 -15006.0 -38.1452 24295.1
 06 11 2023  02 43  03.9296 19106.7 -15006.2 -38.1457 24295.1
 06 11 2023  02 44  03.9271 19106.7 -15006.4 -38.1460 24295.2
 06 11 2023  02 45  03.9247 19106.4 -15006.6 -38.1468 24295.2
 06 11 2023  02 46  03.9232 19106.2 -15006.8 -38.1475 24295.1
 06 11 2023  02 47  03.9218 19106.1 -15007.0 -38.1481 24295.1
 06 11 2023  02 48  03.9196 19106.3 -15007.2 -38.1481 24295.4
 06 11 2023  02 49  03.9177 19106.6 -15007.4 -38.1480 24295.8
 06 11 2023  02 50  03.9165 19106.7 -15007.6 -38.1482 24296.0
 06 11 2023  02 51  03.9150 19106.9 -15007.8 -38.1483 24296.2
 06 11 2023  02 52  03.9141 19107.2 -15007.9 -38.1481 24296.6
 06 11 2023  02 53  03.9135 19107.6 -15008.1 -38.1478 24296.9
 06 11 2023  02 54  03.9125 19107.8 -15008.2 -38.1477 24297.1
 06 11 2023  02 55  03.9118 19108.1 -15008.3 -38.1474 24297.5
 06 11 2023  02 56  03.9115 19108.3 -15008.4 -38.1474 24297.7
 06 11 2023  02 57  03.9120 19108.2 -15008.5 -38.1477 24297.7
 06 11 2023  02 58  03.9128 19107.8 -15008.5 -38.1483 24297.4
 06 11 2023  02 59  03.9138 19108.1 -15008.5 -38.1479 24297.6
 06 11 2023  03 00  03.9140 19107.5 -15008.5 -38.1488 24297.1
 06 11 2023  03 01  03.9137 19107.1 -15008.5 -38.1494 24296.8
 06 11 2023  03 02  03.9138 19106.9 -15008.5 -38.1497 24296.7
 06 11 2023  03 03  03.9145 19106.5 -15008.5 -38.1501 24296.4
 06 11 2023  03 04  03.9150 19106.0 -15008.5 -38.1509 24296.0
 06 11 2023  03 05  03.9160 19105.1 -15008.4 -38.1521 24295.3
 06 11 2023  03 06  03.9172 19104.3 -15008.4 -38.1531 24294.6
 06 11 2023  03 07  03.9185 19103.5 -15008.3 -38.1541 24293.9
 06 11 2023  03 08  03.9206 19103.3 -15008.2 -38.1544 24293.7
 06 11 2023  03 09  03.9230 19103.2 -15008.1 -38.1543 24293.6
 06 11 2023  03 10  03.9243 19102.6 -15008.0 -38.1548 24293.0
 06 11 2023  03 11  03.9250 19102.1 -15007.8 -38.1553 24292.5
 06 11 2023  03 12  03.9261 19101.8 -15007.7 -38.1556 24292.2
 06 11 2023  03 13  03.9279 19100.8 -15007.6 -38.1568 24291.3
 06 11 2023  03 14  03.9287 19099.8 -15007.5 -38.1581 24290.5
 06 11 2023  03 15  03.9287 19098.6 -15007.4 -38.1597 24289.5
 06 11 2023  03 16  03.9291 19097.3 -15007.4 -38.1616 24288.4
 06 11 2023  03 17  03.9300 19096.4 -15007.4 -38.1629 24287.7
 06 11 2023  03 18  03.9311 19095.5 -15007.3 -38.1640 24287.0
 06 11 2023  03 19  03.9310 19094.3 -15007.3 -38.1656 24286.0
 06 11 2023  03 20  03.9312 19094.2 -15007.3 -38.1660 24285.9
 06 11 2023  03 21  03.9318 19094.9 -15007.3 -38.1649 24286.5
 06 11 2023  03 22  03.9328 19096.2 -15007.1 -38.1627 24287.4
 06 11 2023  03 23  03.9321 19096.9 -15007.0 -38.1613 24287.9
 06 11 2023  03 24  03.9329 19097.8 -15006.8 -38.1598 24288.5
 06 11 2023  03 25  03.9322 19098.6 -15006.7 -38.1584 24289.1
 06 11 2023  03 26  03.9322 19099.9 -15006.6 -38.1564 24290.0
 06 11 2023  03 27  03.9320 19101.2 -15006.5 -38.1543 24290.9
 06 11 2023  03 28  03.9309 19102.1 -15006.4 -38.1528 24291.6
 06 11 2023  03 29  03.9300 19103.6 -15006.4 -38.1505 24292.8
 06 11 2023  03 30  03.9285 19105.6 -15006.3 -38.1475 24294.3
 06 11 2023  03 31  03.9268 19106.8 -15006.3 -38.1457 24295.3
 06 11 2023  03 32  03.9257 19107.9 -15006.3 -38.1442 24296.1
 06 11 2023  03 33  03.9256 19109.2 -15006.4 -38.1423 24297.2
 06 11 2023  03 34  03.9249 19110.2 -15006.4 -38.1408 24298.0
 06 11 2023  03 35  03.9237 19111.0 -15006.3 -38.1397 24298.5
 06 11 2023  03 36  03.9227 19111.3 -15006.4 -38.1392 24298.9
 06 11 2023  03 37  03.9226 19111.6 -15006.3 -38.1387 24299.1
 06 11 2023  03 38  03.9232 19111.9 -15006.3 -38.1383 24299.2
 06 11 2023  03 39  03.9243 19112.0 -15006.2 -38.1379 24299.3
 06 11 2023  03 40  03.9252 19112.0 -15006.0 -38.1377 24299.1
 06 11 2023  03 41  03.9255 19111.8 -15005.9 -38.1377 24298.9
 06 11 2023  03 42  03.9260 19111.8 -15005.8 -38.1374 24298.8
 06 11 2023  03 43  03.9271 19112.2 -15005.6 -38.1365 24299.1
 06 11 2023  03 44  03.9288 19112.5 -15005.5 -38.1358 24299.2
 06 11 2023  03 45  03.9307 19113.1 -15005.2 -38.1345 24299.6
 06 11 2023  03 46  03.9325 19113.4 -15005.0 -38.1337 24299.6
 06 11 2023  03 47  03.9338 19113.5 -15004.8 -38.1331 24299.6
 06 11 2023  03 48  03.9351 19114.1 -15004.6 -38.1318 24299.9
 06 11 2023  03 49  03.9354 19114.3 -15004.4 -38.1311 24300.0
 06 11 2023  03 50  03.9350 19114.5 -15004.2 -38.1307 24300.0
 06 11 2023  03 51  03.9358 19114.5 -15004.1 -38.1304 24300.0
 06 11 2023  03 52  03.9365 19114.4 -15004.0 -38.1303 24299.8
 06 11 2023  03 53  03.9365 19114.1 -15003.9 -38.1306 24299.5
 06 11 2023  03 54  03.9362 19113.3 -15003.8 -38.1315 24298.8
 06 11 2023  03 55  03.9355 19112.8 -15003.8 -38.1322 24298.4
 06 11 2023  03 56  03.9372 19112.8 -15003.6 -38.1320 24298.3
 06 11 2023  03 57  03.9378 19112.9 -15003.6 -38.1318 24298.3
 06 11 2023  03 58  03.9388 19112.6 -15003.4 -38.1318 24298.0
 06 11 2023  03 59  03.9411 19112.3 -15003.2 -38.1319 24297.7
 06 11 2023  04 00  03.9429 19112.4 -15003.0 -38.1315 24297.6
 06 11 2023  04 01  03.9449 19112.4 -15002.8 -38.1310 24297.4
 06 11 2023  04 02  03.9461 19111.9 -15002.6 -38.1313 24297.0
 06 11 2023  04 03  03.9465 19112.1 -15002.4 -38.1307 24297.0
 06 11 2023  04 04  03.9472 19111.9 -15002.2 -38.1306 24296.8
 06 11 2023  04 05  03.9474 19111.3 -15002.1 -38.1314 24296.2
 06 11 2023  04 06  03.9478 19110.4 -15002.1 -38.1325 24295.5
 06 11 2023  04 07  03.9472 19109.5 -15002.0 -38.1338 24294.7
 06 11 2023  04 08  03.9473 19109.2 -15002.0 -38.1343 24294.5
 06 11 2023  04 09  03.9467 19108.9 -15002.1 -38.1348 24294.2
 06 11 2023  04 10  03.9464 19109.0 -15002.1 -38.1347 24294.4
 06 11 2023  04 11  03.9457 19109.1 -15002.1 -38.1346 24294.5
 06 11 2023  04 12  03.9448 19109.0 -15002.2 -38.1348 24294.5
 06 11 2023  04 13  03.9444 19109.1 -15002.3 -38.1348 24294.6
 06 11 2023  04 14  03.9436 19109.4 -15002.4 -38.1345 24294.9
 06 11 2023  04 15  03.9424 19109.9 -15002.5 -38.1340 24295.3
 06 11 2023  04 16  03.9421 19110.6 -15002.6 -38.1332 24295.9
 06 11 2023  04 17  03.9426 19111.4 -15002.6 -38.1321 24296.5
 06 11 2023  04 18  03.9433 19111.8 -15002.6 -38.1315 24296.9
 06 11 2023  04 19  03.9441 19111.9 -15002.5 -38.1312 24296.9
 06 11 2023  04 20  03.9438 19112.1 -15002.5 -38.1309 24297.0
 06 11 2023  04 21  03.9435 19112.5 -15002.4 -38.1302 24297.4
 06 11 2023  04 22  03.9432 19113.0 -15002.4 -38.1295 24297.7
 06 11 2023  04 23  03.9431 19113.4 -15002.4 -38.1289 24298.0
 06 11 2023  04 24  03.9434 19113.8 -15002.4 -38.1281 24298.3
 06 11 2023  04 25  03.9443 19114.9 -15002.3 -38.1265 24299.2
 06 11 2023  04 26  03.9456 19115.2 -15002.2 -38.1259 24299.3
 06 11 2023  04 27  03.9466 19115.0 -15002.1 -38.1259 24299.1
 06 11 2023  04 28  03.9485 19115.0 -15002.0 -38.1257 24299.0
 06 11 2023  04 29  03.9493 19114.6 -15001.8 -38.1259 24298.6
 06 11 2023  04 30  03.9502 19114.5 -15001.6 -38.1259 24298.4
 06 11 2023  04 31  03.9508 19114.3 -15001.5 -38.1259 24298.2
 06 11 2023  04 32  03.9518 19114.2 -15001.3 -38.1258 24298.0
 06 11 2023  04 33  03.9531 19114.1 -15001.2 -38.1255 24297.8
 06 11 2023  04 34  03.9538 19114.2 -15001.0 -38.1250 24297.8
 06 11 2023  04 35  03.9542 19114.6 -15000.8 -38.1242 24298.0
 06 11 2023  04 36  03.9543 19115.0 -15000.7 -38.1233 24298.3
 06 11 2023  04 37  03.9547 19115.5 -15000.6 -38.1225 24298.5
 06 11 2023  04 38  03.9550 19115.9 -15000.5 -38.1216 24298.8
 06 11 2023  04 39  03.9553 19116.6 -15000.4 -38.1204 24299.3
 06 11 2023  04 40  03.9548 19117.0 -15000.3 -38.1197 24299.5
 06 11 2023  04 41  03.9541 19117.4 -15000.2 -38.1190 24299.8
 06 11 2023  04 42  03.9541 19118.3 -15000.2 -38.1176 24300.5
 06 11 2023  04 43  03.9541 19119.2 -15000.2 -38.1162 24301.2
 06 11 2023  04 44  03.9542 19120.2 -15000.1 -38.1147 24301.9
 06 11 2023  04 45  03.9544 19121.1 -15000.0 -38.1131 24302.6
 06 11 2023  04 46  03.9547 19122.3 -14999.9 -38.1112 24303.5
 06 11 2023  04 47  03.9553 19124.0 -14999.7 -38.1084 24304.7
 06 11 2023  04 48  03.9557 19126.0 -14999.6 -38.1053 24306.2
 06 11 2023  04 49  03.9569 19129.0 -14999.4 -38.1006 24308.4
 06 11 2023  04 50  03.9574 19131.7 -14999.2 -38.0963 24310.4
 06 11 2023  04 51  03.9581 19133.5 -14999.0 -38.0932 24311.7
 06 11 2023  04 52  03.9601 19135.5 -14998.7 -38.0899 24313.1
 06 11 2023  04 53  03.9616 19136.5 -14998.5 -38.0880 24313.7
 06 11 2023  04 54  03.9627 19137.4 -14998.2 -38.0862 24314.3
 06 11 2023  04 55  03.9630 19138.5 -14998.1 -38.0843 24315.1
 06 11 2023  04 56  03.9623 19139.4 -14998.0 -38.0828 24315.7
 06 11 2023  04 57  03.9618 19140.1 -14997.9 -38.0816 24316.3
 06 11 2023  04 58  03.9615 19143.2 -14997.9 -38.0772 24318.7
 06 11 2023  04 59  03.9593 19148.5 -14997.9 -38.0694 24322.9
 06 11 2023  05 00  03.9573 19154.3 -14997.8 -38.0608 24327.4
 06 11 2023  05 01  03.9583 19157.4 -14997.7 -38.0561 24329.7
 06 11 2023  05 02  03.9585 19156.4 -14997.5 -38.0573 24328.9
 06 11 2023  05 03  03.9576 19153.4 -14997.6 -38.0617 24326.5
 06 11 2023  05 04  03.9564 19149.1 -14997.8 -38.0683 24323.2
 06 11 2023  05 05  03.9540 19146.0 -14998.0 -38.0733 24321.0
 06 11 2023  05 06  03.9506 19144.6 -14998.4 -38.0759 24320.1
 06 11 2023  05 07  03.9486 19147.1 -14998.7 -38.0730 24322.3
 06 11 2023  05 08  03.9462 19149.6 -14998.9 -38.0696 24324.4
 06 11 2023  05 09  03.9442 19150.0 -14999.0 -38.0694 24324.7
 06 11 2023  05 10  03.9426 19149.4 -14999.3 -38.0708 24324.4
 06 11 2023  05 11  03.9413 19148.1 -14999.5 -38.0731 24323.5
 06 11 2023  05 12  03.9395 19145.5 -14999.8 -38.0774 24321.7
 06 11 2023  05 13  03.9373 19141.3 -15000.2 -38.0841 24318.6
 06 11 2023  05 14  03.9362 19135.7 -15000.7 -38.0932 24314.5
 06 11 2023  05 15  03.9342 19128.3 -15001.2 -38.1050 24309.0
 06 11 2023  05 16  03.9308 19122.6 -15001.8 -38.1144 24304.9
 06 11 2023  05 17  03.9280 19120.0 -15002.4 -38.1193 24303.2
 06 11 2023  05 18  03.9279 19121.2 -15002.9 -38.1184 24304.4
 06 11 2023  05 19  03.9296 19124.8 -15003.0 -38.1133 24307.4
 06 11 2023  05 20  03.9311 19127.2 -15002.9 -38.1097 24309.2
 06 11 2023  05 21  03.9323 19128.2 -15002.8 -38.1080 24309.9
 06 11 2023  05 22  03.9329 19128.3 -15002.7 -38.1076 24309.9
 06 11 2023  05 23  03.9340 19128.6 -15002.5 -38.1069 24310.1
 06 11 2023  05 24  03.9354 19129.5 -15002.4 -38.1054 24310.7
 06 11 2023  05 25  03.9363 19129.9 -15002.2 -38.1045 24310.9
 06 11 2023  05 26  03.9365 19129.3 -15002.1 -38.1050 24310.3
 06 11 2023  05 27  03.9366 19128.8 -15002.0 -38.1056 24309.9
 06 11 2023  05 28  03.9373 19128.7 -15001.9 -38.1056 24309.7
 06 11 2023  05 29  03.9380 19128.8 -15001.8 -38.1052 24309.8
 06 11 2023  05 30  03.9390 19128.7 -15001.6 -38.1051 24309.6
 06 11 2023  05 31  03.9390 19129.1 -15001.5 -38.1043 24309.8
 06 11 2023  05 32  03.9384 19129.8 -15001.4 -38.1030 24310.3
 06 11 2023  05 33  03.9383 19130.7 -15001.3 -38.1016 24311.0
 06 11 2023  05 34  03.9384 19131.8 -15001.2 -38.0998 24311.8
 06 11 2023  05 35  03.9388 19133.0 -15001.1 -38.0980 24312.6
 06 11 2023  05 36  03.9388 19134.2 -15001.0 -38.0961 24313.5
 06 11 2023  05 37  03.9387 19135.4 -15001.0 -38.0941 24314.4
 06 11 2023  05 38  03.9391 19137.7 -15000.9 -38.0907 24316.2
 06 11 2023  05 39  03.9381 19140.6 -15000.8 -38.0862 24318.5
 06 11 2023  05 40  03.9366 19143.5 -15000.7 -38.0819 24320.6
 06 11 2023  05 41  03.9358 19146.2 -15000.6 -38.0777 24322.8
 06 11 2023  05 42  03.9355 19149.1 -15000.5 -38.0734 24324.9
 06 11 2023  05 43  03.9351 19152.1 -15000.4 -38.0689 24327.3
 06 11 2023  05 44  03.9352 19155.3 -15000.3 -38.0640 24329.7
 06 11 2023  05 45  03.9356 19156.8 -15000.1 -38.0615 24330.7
 06 11 2023  05 46  03.9376 19157.3 -14999.9 -38.0605 24331.0
 06 11 2023  05 47  03.9397 19156.4 -14999.7 -38.0613 24330.2
 06 11 2023  05 48  03.9418 19155.1 -14999.6 -38.0629 24329.1
 06 11 2023  05 49  03.9439 19153.9 -14999.4 -38.0644 24328.0
 06 11 2023  05 50  03.9445 19152.5 -14999.3 -38.0662 24326.9
 06 11 2023  05 51  03.9438 19150.1 -14999.2 -38.0695 24325.0
 06 11 2023  05 52  03.9433 19148.4 -14999.2 -38.0720 24323.6
 06 11 2023  05 53  03.9429 19147.7 -14999.3 -38.0732 24323.1
 06 11 2023  05 54  03.9424 19146.9 -14999.3 -38.0744 24322.5
 06 11 2023  05 55  03.9424 19147.2 -14999.4 -38.0740 24322.8
 06 11 2023  05 56  03.9418 19147.7 -14999.4 -38.0733 24323.2
 06 11 2023  05 57  03.9426 19148.6 -14999.4 -38.0720 24323.9
 06 11 2023  05 58  03.9436 19148.9 -14999.3 -38.0714 24324.0
 06 11 2023  05 59  03.9437 19149.0 -14999.3 -38.0713 24324.1
 06 11 2023  06 00  03.9426 19149.7 -14999.2 -38.0701 24324.6
 06 11 2023  06 01  03.9409 19149.4 -14999.2 -38.0706 24324.4
 06 11 2023  06 02  03.9400 19148.6 -14999.2 -38.0718 24323.8
 06 11 2023  06 03  03.9396 19146.9 -14999.3 -38.0744 24322.5
 06 11 2023  06 04  03.9393 19147.2 -14999.5 -38.0743 24322.8
 06 11 2023  06 05  03.9370 19149.4 -14999.6 -38.0712 24324.6
 06 11 2023  06 06  03.9348 19150.4 -14999.6 -38.0698 24325.4
 06 11 2023  06 07  03.9335 19143.8 -14999.5 -38.0793 24320.1
 06 11 2023  06 08  03.9344 19132.8 -14999.8 -38.0958 24311.7
 06 11 2023  06 09  03.9340 19124.8 -15000.3 -38.1083 24305.7
 06 11 2023  06 10  03.9300 19122.1 -15000.9 -38.1133 24304.0
 06 11 2023  06 11  03.9251 19126.0 -15001.3 -38.1085 24307.3
 06 11 2023  06 12  03.9219 19131.3 -15001.5 -38.1011 24311.5
 06 11 2023  06 13  03.9223 19135.1 -15001.5 -38.0956 24314.6
 06 11 2023  06 14  03.9240 19139.4 -15001.4 -38.0892 24317.9
 06 11 2023  06 15  03.9273 19140.1 -15001.2 -38.0878 24318.3
 06 11 2023  06 16  03.9271 19136.5 -15001.2 -38.0930 24315.4
 06 11 2023  06 17  03.9250 19140.8 -15001.4 -38.0871 24318.9
 06 11 2023  06 18  03.9238 19147.5 -15001.3 -38.0772 24324.1
 06 11 2023  06 19  03.9264 19152.2 -15001.0 -38.0699 24327.7
 06 11 2023  06 20  03.9285 19156.5 -15000.8 -38.0632 24330.9
 06 11 2023  06 21  03.9313 19159.6 -15000.4 -38.0580 24333.2
 06 11 2023  06 22  03.9340 19160.0 -15000.1 -38.0568 24333.3
 06 11 2023  06 23  03.9345 19158.0 -14999.8 -38.0592 24331.5
 06 11 2023  06 24  03.9353 19156.2 -14999.7 -38.0616 24330.1
 06 11 2023  06 25  03.9359 19154.9 -14999.6 -38.0634 24328.9
 06 11 2023  06 26  03.9364 19152.5 -14999.5 -38.0666 24327.0
 06 11 2023  06 27  03.9367 19148.8 -14999.5 -38.0719 24324.1
 06 11 2023  06 28  03.9347 19145.5 -14999.6 -38.0770 24321.5
 06 11 2023  06 29  03.9315 19143.9 -14999.9 -38.0798 24320.4
 06 11 2023  06 30  03.9291 19143.7 -15000.1 -38.0806 24320.4
 06 11 2023  06 31  03.9280 19143.7 -15000.3 -38.0809 24320.6
 06 11 2023  06 32  03.9263 19143.8 -15000.5 -38.0811 24320.7
 06 11 2023  06 33  03.9250 19145.0 -15000.7 -38.0797 24321.8
 06 11 2023  06 34  03.9236 19145.6 -15000.8 -38.0790 24322.4
 06 11 2023  06 35  03.9214 19145.3 -15000.9 -38.0798 24322.2
 06 11 2023  06 36  03.9184 19144.9 -15001.2 -38.0807 24322.1
 06 11 2023  06 37  03.9159 19145.2 -15001.4 -38.0808 24322.4
 06 11 2023  06 38  03.9143 19145.6 -15001.6 -38.0806 24322.9
 06 11 2023  06 39  03.9131 19145.5 -15001.8 -38.0810 24322.9
 06 11 2023  06 40  03.9116 19144.8 -15002.0 -38.0824 24322.5
 06 11 2023  06 41  03.9094 19143.2 -15002.2 -38.0851 24321.3
 06 11 2023  06 42  03.9076 19141.2 -15002.4 -38.0883 24319.9
 06 11 2023  06 43  03.9063 19138.8 -15002.5 -38.0921 24318.1
 06 11 2023  06 44  03.9055 19136.8 -15002.7 -38.0954 24316.6
 06 11 2023  06 45  03.9051 19135.9 -15002.9 -38.0970 24316.0
 06 11 2023  06 46  03.9047 19137.1 -15003.0 -38.0954 24317.1
 06 11 2023  06 47  03.9064 19138.5 -15003.0 -38.0934 24318.1
 06 11 2023  06 48  03.9069 19137.1 -15002.9 -38.0954 24317.0
 06 11 2023  06 49  03.9069 19133.6 -15002.9 -38.1004 24314.3
 06 11 2023  06 50  03.9046 19130.8 -15003.1 -38.1048 24312.1
 06 11 2023  06 51  03.9023 19129.9 -15003.3 -38.1065 24311.6
 06 11 2023  06 52  03.9013 19129.5 -15003.4 -38.1073 24311.4
 06 11 2023  06 53  03.9006 19129.7 -15003.6 -38.1073 24311.5
 06 11 2023  06 54  03.9011 19129.7 -15003.6 -38.1072 24311.6
 06 11 2023  06 55  03.9022 19129.8 -15003.6 -38.1071 24311.7
 06 11 2023  06 56  03.9027 19129.7 -15003.6 -38.1073 24311.5
 06 11 2023  06 57  03.9029 19129.6 -15003.5 -38.1073 24311.4
 06 11 2023  06 58  03.9034 19129.5 -15003.4 -38.1073 24311.4
 06 11 2023  06 59  03.9040 19130.3 -15003.4 -38.1061 24311.9
 06 11 2023  07 00  03.9052 19131.6 -15003.2 -38.1038 24312.9
 06 11 2023  07 01  03.9080 19133.6 -15003.0 -38.1006 24314.3
 06 11 2023  07 02  03.9109 19135.5 -15002.7 -38.0972 24315.6
 06 11 2023  07 03  03.9128 19134.8 -15002.4 -38.0977 24314.8
 06 11 2023  07 04  03.9129 19133.3 -15002.2 -38.0996 24313.5
 06 11 2023  07 05  03.9136 19134.8 -15002.1 -38.0970 24314.7
 06 11 2023  07 06  03.9153 19135.0 -15001.8 -38.0962 24314.7
 06 11 2023  07 07  03.9163 19134.6 -15001.6 -38.0965 24314.2
 06 11 2023  07 08  03.9164 19134.6 -15001.4 -38.0962 24314.1
 06 11 2023  07 09  03.9165 19134.3 -15001.3 -38.0963 24313.8
 06 11 2023  07 10  03.9171 19133.2 -15001.1 -38.0976 24312.9
 06 11 2023  07 11  03.9163 19133.4 -15001.1 -38.0973 24312.9
 06 11 2023  07 12  03.9166 19134.1 -15001.0 -38.0960 24313.5
 06 11 2023  07 13  03.9161 19134.6 -15000.9 -38.0951 24313.8
 06 11 2023  07 14  03.9159 19134.8 -15000.8 -38.0946 24313.9
 06 11 2023  07 15  03.9160 19134.8 -15000.7 -38.0945 24313.9
 06 11 2023  07 16  03.9155 19134.3 -15000.7 -38.0952 24313.4
 06 11 2023  07 17  03.9136 19133.6 -15000.7 -38.0962 24312.8
 06 11 2023  07 18  03.9118 19133.8 -15000.7 -38.0960 24313.1
 06 11 2023  07 19  03.9117 19134.5 -15000.7 -38.0951 24313.6
 06 11 2023  07 20  03.9124 19135.2 -15000.7 -38.0939 24314.1
 06 11 2023  07 21  03.9136 19136.2 -15000.6 -38.0924 24314.8
 06 11 2023  07 22  03.9144 19137.1 -15000.5 -38.0908 24315.5
 06 11 2023  07 23  03.9147 19137.3 -15000.3 -38.0902 24315.5
 06 11 2023  07 24  03.9147 19137.2 -15000.2 -38.0901 24315.3
 06 11 2023  07 25  03.9151 19137.3 -15000.1 -38.0897 24315.4
 06 11 2023  07 26  03.9152 19137.5 -15000.0 -38.0893 24315.4
 06 11 2023  07 27  03.9150 19137.6 -14999.9 -38.0889 24315.5
 06 11 2023  07 28  03.9155 19137.9 -14999.8 -38.0884 24315.6
 06 11 2023  07 29  03.9159 19138.0 -14999.7 -38.0880 24315.7
 06 11 2023  07 30  03.9165 19138.6 -14999.6 -38.0869 24316.1
 06 11 2023  07 31  03.9172 19139.0 -14999.4 -38.0861 24316.4
 06 11 2023  07 32  03.9184 19139.7 -14999.3 -38.0848 24316.8
 06 11 2023  07 33  03.9198 19140.3 -14999.1 -38.0837 24317.2
 06 11 2023  07 34  03.9214 19140.9 -14999.0 -38.0825 24317.5
 06 11 2023  07 35  03.9228 19141.2 -14998.8 -38.0816 24317.7
 06 11 2023  07 36  03.9244 19142.3 -14998.6 -38.0798 24318.4
 06 11 2023  07 37  03.9258 19143.1 -14998.4 -38.0782 24318.9
 06 11 2023  07 38  03.9271 19143.5 -14998.2 -38.0773 24319.1
 06 11 2023  07 39  03.9282 19144.2 -14998.0 -38.0759 24319.6
 06 11 2023  07 40  03.9296 19145.2 -14997.9 -38.0741 24320.3
 06 11 2023  07 41  03.9316 19146.1 -14997.6 -38.0724 24320.8
 06 11 2023  07 42  03.9334 19146.8 -14997.4 -38.0710 24321.2
 06 11 2023  07 43  03.9353 19147.3 -14997.2 -38.0698 24321.5
 06 11 2023  07 44  03.9368 19147.7 -14996.9 -38.0688 24321.7
 06 11 2023  07 45  03.9376 19147.8 -14996.8 -38.0683 24321.6
 06 11 2023  07 46  03.9379 19147.9 -14996.6 -38.0680 24321.6
 06 11 2023  07 47  03.9383 19147.3 -14996.5 -38.0686 24321.1
 06 11 2023  07 48  03.9387 19146.6 -14996.4 -38.0695 24320.5
 06 11 2023  07 49  03.9393 19146.1 -14996.4 -38.0701 24320.0
 06 11 2023  07 50  03.9395 19145.6 -14996.3 -38.0708 24319.6
 06 11 2023  07 51  03.9398 19144.9 -14996.3 -38.0717 24319.0
 06 11 2023  07 52  03.9399 19144.2 -14996.3 -38.0726 24318.5
 06 11 2023  07 53  03.9402 19143.9 -14996.3 -38.0731 24318.2
 06 11 2023  07 54  03.9406 19143.6 -14996.3 -38.0735 24318.0
 06 11 2023  07 55  03.9408 19143.5 -14996.2 -38.0736 24317.9
 06 11 2023  07 56  03.9410 19143.6 -14996.2 -38.0735 24318.0
 06 11 2023  07 57  03.9409 19143.5 -14996.2 -38.0736 24317.9
 06 11 2023  07 58  03.9410 19143.9 -14996.3 -38.0730 24318.2
 06 11 2023  07 59  03.9408 19144.4 -14996.3 -38.0723 24318.7
 06 11 2023  08 00  03.9406 19144.8 -14996.3 -38.0718 24319.0
 06 11 2023  08 01  03.9409 19145.0 -14996.3 -38.0715 24319.2
 06 11 2023  08 02  03.9413 19145.3 -14996.3 -38.0712 24319.4
 06 11 2023  08 03  03.9419 19145.5 -14996.3 -38.0709 24319.5
 06 11 2023  08 04  03.9420 19145.2 -14996.3 -38.0712 24319.3
 06 11 2023  08 05  03.9418 19144.7 -14996.3 -38.0719 24318.9
 06 11 2023  08 06  03.9422 19144.7 -14996.4 -38.0720 24319.0
 06 11 2023  08 07  03.9428 19145.0 -14996.4 -38.0717 24319.1
 06 11 2023  08 08  03.9438 19145.2 -14996.3 -38.0714 24319.3
 06 11 2023  08 09  03.9449 19145.7 -14996.3 -38.0705 24319.7
 06 11 2023  08 10  03.9457 19146.2 -14996.2 -38.0697 24320.1
 06 11 2023  08 11  03.9459 19146.4 -14996.2 -38.0693 24320.2
 06 11 2023  08 12  03.9462 19146.3 -14996.1 -38.0694 24320.0
 06 11 2023  08 13  03.9464 19146.0 -14996.1 -38.0697 24319.8
 06 11 2023  08 14  03.9464 19145.8 -14996.1 -38.0701 24319.7
 06 11 2023  08 15  03.9464 19145.7 -14996.2 -38.0702 24319.6
 06 11 2023  08 16  03.9464 19145.6 -14996.2 -38.0705 24319.5
 06 11 2023  08 17  03.9467 19145.4 -14996.2 -38.0708 24319.4
 06 11 2023  08 18  03.9473 19145.0 -14996.2 -38.0715 24319.0
 06 11 2023  08 19  03.9480 19144.9 -14996.2 -38.0715 24319.0
 06 11 2023  08 20  03.9484 19145.0 -14996.2 -38.0714 24319.1
 06 11 2023  08 21  03.9486 19144.9 -14996.2 -38.0716 24319.0
 06 11 2023  08 22  03.9483 19144.9 -14996.2 -38.0716 24319.0
 06 11 2023  08 23  03.9480 19145.2 -14996.3 -38.0713 24319.3
 06 11 2023  08 24  03.9475 19145.5 -14996.3 -38.0708 24319.6
 06 11 2023  08 25  03.9469 19145.9 -14996.4 -38.0703 24319.9
 06 11 2023  08 26  03.9468 19146.1 -14996.4 -38.0702 24320.1
 06 11 2023  08 27  03.9458 19146.4 -14996.5 -38.0699 24320.3
 06 11 2023  08 28  03.9447 19146.6 -14996.6 -38.0697 24320.6
 06 11 2023  08 29  03.9439 19146.7 -14996.7 -38.0698 24320.7
 06 11 2023  08 30  03.9434 19146.7 -14996.7 -38.0699 24320.7
 06 11 2023  08 31  03.9429 19146.8 -14996.8 -38.0699 24320.8
 06 11 2023  08 32  03.9424 19146.7 -14996.9 -38.0703 24320.8
 06 11 2023  08 33  03.9424 19146.8 -14997.0 -38.0702 24320.9
 06 11 2023  08 34  03.9425 19146.9 -14997.0 -38.0701 24321.1
 06 11 2023  08 35  03.9426 19147.1 -14997.0 -38.0699 24321.2
 06 11 2023  08 36  03.9425 19147.0 -14997.0 -38.0700 24321.2
 06 11 2023  08 37  03.9427 19146.8 -14997.0 -38.0703 24321.0
 06 11 2023  08 38  03.9441 19146.9 -14997.0 -38.0701 24321.1
 06 11 2023  08 39  03.9451 19146.6 -14997.0 -38.0704 24320.8
 06 11 2023  08 40  03.9459 19146.4 -14996.9 -38.0706 24320.6
 06 11 2023  08 41  03.9458 19146.2 -14996.9 -38.0709 24320.4
 06 11 2023  08 42  03.9460 19146.3 -14996.9 -38.0707 24320.5
 06 11 2023  08 43  03.9457 19146.4 -14996.8 -38.0706 24320.5
 06 11 2023  08 44  03.9449 19146.1 -14996.9 -38.0710 24320.3
 06 11 2023  08 45  03.9438 19146.1 -14996.9 -38.0710 24320.4
 06 11 2023  08 46  03.9432 19146.4 -14997.0 -38.0708 24320.6
 06 11 2023  08 47  03.9423 19146.6 -14997.0 -38.0706 24320.8
 06 11 2023  08 48  03.9417 19146.8 -14997.1 -38.0704 24321.0
 06 11 2023  08 49  03.9416 19147.0 -14997.1 -38.0702 24321.2
 06 11 2023  08 50  03.9407 19146.8 -14997.1 -38.0705 24321.1
 06 11 2023  08 51  03.9401 19146.6 -14997.2 -38.0708 24321.0
 06 11 2023  08 52  03.9398 19146.4 -14997.2 -38.0711 24320.8
 06 11 2023  08 53  03.9409 19146.6 -14997.2 -38.0709 24320.9
 06 11 2023  08 54  03.9430 19146.5 -14997.1 -38.0708 24320.8
 06 11 2023  08 55  03.9446 19145.8 -14997.0 -38.0716 24320.2
 06 11 2023  08 56  03.9459 19145.4 -14996.9 -38.0720 24319.8
 06 11 2023  08 57  03.9474 19145.3 -14996.8 -38.0719 24319.7
 06 11 2023  08 58  03.9498 19145.6 -14996.5 -38.0712 24319.7
 06 11 2023  08 59  03.9517 19145.3 -14996.3 -38.0711 24319.4
 06 11 2023  09 00  03.9538 19144.9 -14996.1 -38.0713 24319.0
 06 11 2023  09 01  03.9551 19144.6 -14995.9 -38.0714 24318.6
 06 11 2023  09 02  03.9561 19144.0 -14995.8 -38.0720 24318.0
 06 11 2023  09 03  03.9569 19143.8 -14995.6 -38.0720 24317.7
 06 11 2023  09 04  03.9565 19143.2 -14995.4 -38.0725 24317.1
 06 11 2023  09 05  03.9561 19143.0 -14995.3 -38.0727 24317.0
 06 11 2023  09 06  03.9546 19142.7 -14995.3 -38.0732 24316.7
 06 11 2023  09 07  03.9537 19142.6 -14995.4 -38.0733 24316.7
 06 11 2023  09 08  03.9529 19142.6 -14995.4 -38.0733 24316.7
 06 11 2023  09 09  03.9522 19142.6 -14995.4 -38.0733 24316.7
 06 11 2023  09 10  03.9509 19142.5 -14995.4 -38.0735 24316.7
 06 11 2023  09 11  03.9502 19142.6 -14995.5 -38.0734 24316.7
 06 11 2023  09 12  03.9492 19142.6 -14995.5 -38.0736 24316.7
 06 11 2023  09 13  03.9493 19143.3 -14995.5 -38.0725 24317.3
 06 11 2023  09 14  03.9492 19143.7 -14995.4 -38.0718 24317.5
 06 11 2023  09 15  03.9488 19143.9 -14995.4 -38.0715 24317.7
 06 11 2023  09 16  03.9503 19144.5 -14995.3 -38.0705 24318.2
 06 11 2023  09 17  03.9511 19145.4 -14995.2 -38.0690 24318.8
 06 11 2023  09 18  03.9508 19146.0 -14995.2 -38.0679 24319.2
 06 11 2023  09 19  03.9505 19146.1 -14995.1 -38.0678 24319.3
 06 11 2023  09 20  03.9517 19146.7 -14995.1 -38.0670 24319.7
 06 11 2023  09 21  03.9534 19147.6 -14995.0 -38.0654 24320.4
 06 11 2023  09 22  03.9556 19148.7 -14994.8 -38.0634 24321.1
 06 11 2023  09 23  03.9560 19149.4 -14994.6 -38.0620 24321.6
 06 11 2023  09 24  03.9555 19150.5 -14994.6 -38.0603 24322.4
 06 11 2023  09 25  03.9546 19151.0 -14994.5 -38.0593 24322.7
 06 11 2023  09 26  03.9541 19152.0 -14994.4 -38.0580 24323.4
 06 11 2023  09 27  03.9524 19152.9 -14994.3 -38.0565 24324.1
 06 11 2023  09 28  03.9510 19153.0 -14994.3 -38.0564 24324.2
 06 11 2023  09 29  03.9506 19152.9 -14994.3 -38.0564 24324.1
 06 11 2023  09 30  03.9498 19153.1 -14994.3 -38.0560 24324.2
 06 11 2023  09 31  03.9498 19153.3 -14994.2 -38.0557 24324.3
 06 11 2023  09 32  03.9509 19153.0 -14994.0 -38.0558 24324.0
 06 11 2023  09 33  03.9518 19153.0 -14993.9 -38.0556 24323.9
 06 11 2023  09 34  03.9523 19153.2 -14993.8 -38.0550 24324.0
 06 11 2023  09 35  03.9521 19153.2 -14993.6 -38.0547 24324.0
 06 11 2023  09 36  03.9514 19153.8 -14993.7 -38.0539 24324.4
 06 11 2023  09 37  03.9517 19154.6 -14993.6 -38.0526 24325.0
 06 11 2023  09 38  03.9517 19155.1 -14993.5 -38.0518 24325.4
 06 11 2023  09 39  03.9515 19155.9 -14993.5 -38.0505 24326.0
 06 11 2023  09 40  03.9520 19156.6 -14993.4 -38.0494 24326.5
 06 11 2023  09 41  03.9523 19157.6 -14993.4 -38.0478 24327.3
 06 11 2023  09 42  03.9524 19158.8 -14993.3 -38.0459 24328.2
 06 11 2023  09 43  03.9522 19159.8 -14993.2 -38.0443 24328.8
 06 11 2023  09 44  03.9523 19161.0 -14993.1 -38.0423 24329.8
 06 11 2023  09 45  03.9517 19161.6 -14993.1 -38.0415 24330.2
 06 11 2023  09 46  03.9501 19162.2 -14993.1 -38.0406 24330.8
 06 11 2023  09 47  03.9476 19161.8 -14993.3 -38.0416 24330.5
 06 11 2023  09 48  03.9474 19162.1 -14993.4 -38.0414 24330.8
 06 11 2023  09 49  03.9464 19165.0 -14993.7 -38.0376 24333.3
 06 11 2023  09 50  03.9434 19165.0 -14993.6 -38.0375 24333.2
 06 11 2023  09 51  03.9443 19162.5 -14993.8 -38.0415 24331.4
 06 11 2023  09 52  03.9479 19164.0 -14993.9 -38.0396 24332.6
 06 11 2023  09 53  03.9486 19163.6 -14993.8 -38.0400 24332.3
 06 11 2023  09 54  03.9477 19163.5 -14993.9 -38.0403 24332.2
 06 11 2023  09 55  03.9451 19163.6 -14994.1 -38.0404 24332.4
 06 11 2023  09 56  03.9437 19164.2 -14994.2 -38.0399 24332.9
 06 11 2023  09 57  03.9440 19164.6 -14994.3 -38.0393 24333.4
 06 11 2023  09 58  03.9457 19164.5 -14994.3 -38.0395 24333.3
 06 11 2023  09 59  03.9478 19163.4 -14994.2 -38.0409 24332.4
 06 11 2023  10 00  03.9506 19162.1 -14994.1 -38.0427 24331.2
 06 11 2023  10 01  03.9528 19161.4 -14994.0 -38.0436 24330.6
 06 11 2023  10 02  03.9542 19160.5 -14993.9 -38.0446 24329.9
 06 11 2023  10 03  03.9554 19159.2 -14993.8 -38.0463 24328.7
 06 11 2023  10 04  03.9556 19158.7 -14993.7 -38.0468 24328.3
 06 11 2023  10 05  03.9564 19158.3 -14993.7 -38.0474 24328.0
 06 11 2023  10 06  03.9568 19157.9 -14993.6 -38.0477 24327.6
 06 11 2023  10 07  03.9580 19158.0 -14993.5 -38.0475 24327.7
 06 11 2023  10 08  03.9583 19158.2 -14993.4 -38.0471 24327.8
 06 11 2023  10 09  03.9586 19158.5 -14993.4 -38.0465 24328.0
 06 11 2023  10 10  03.9595 19159.0 -14993.3 -38.0457 24328.3
 06 11 2023  10 11  03.9598 19159.4 -14993.3 -38.0451 24328.6
 06 11 2023  10 12  03.9601 19159.4 -14993.2 -38.0450 24328.5
 06 11 2023  10 13  03.9613 19159.5 -14993.2 -38.0447 24328.6
 06 11 2023  10 14  03.9632 19159.2 -14993.0 -38.0448 24328.3
 06 11 2023  10 15  03.9631 19158.3 -14993.0 -38.0460 24327.6
 06 11 2023  10 16  03.9631 19156.9 -14993.0 -38.0481 24326.5
 06 11 2023  10 17  03.9639 19155.6 -14993.1 -38.0501 24325.5
 06 11 2023  10 18  03.9640 19154.5 -14993.2 -38.0519 24324.7
 06 11 2023  10 19  03.9643 19153.9 -14993.2 -38.0529 24324.3
 06 11 2023  10 20  03.9648 19153.7 -14993.3 -38.0533 24324.1
 06 11 2023  10 21  03.9651 19153.3 -14993.3 -38.0539 24323.8
 06 11 2023  10 22  03.9650 19152.9 -14993.3 -38.0545 24323.5
 06 11 2023  10 23  03.9647 19152.2 -14993.3 -38.0556 24323.0
 06 11 2023  10 24  03.9641 19151.7 -14993.4 -38.0565 24322.6
 06 11 2023  10 25  03.9617 19151.0 -14993.6 -38.0578 24322.2
 06 11 2023  10 26  03.9575 19150.3 -14993.9 -38.0594 24321.8
 06 11 2023  10 27  03.9552 19149.1 -14994.2 -38.0618 24321.1
 06 11 2023  10 28  03.9524 19148.5 -14994.6 -38.0633 24320.8
 06 11 2023  10 29  03.9492 19148.5 -14995.0 -38.0640 24321.0
 06 11 2023  10 30  03.9473 19148.4 -14995.3 -38.0648 24321.2
 06 11 2023  10 31  03.9469 19148.4 -14995.6 -38.0652 24321.3
 06 11 2023  10 32  03.9464 19148.4 -14995.7 -38.0656 24321.4
 06 11 2023  10 33  03.9452 19148.5 -14996.0 -38.0659 24321.7
 06 11 2023  10 34  03.9435 19148.9 -14996.1 -38.0656 24322.1
 06 11 2023  10 35  03.9422 19149.2 -14996.3 -38.0656 24322.4
 06 11 2023  10 36  03.9407 19149.4 -14996.5 -38.0655 24322.7
 06 11 2023  10 37  03.9396 19149.4 -14996.6 -38.0658 24322.8
 06 11 2023  10 38  03.9389 19149.7 -14996.8 -38.0657 24323.1
 06 11 2023  10 39  03.9399 19150.0 -14996.9 -38.0655 24323.4
 06 11 2023  10 40  03.9409 19150.2 -14997.0 -38.0652 24323.7
 06 11 2023  10 41  03.9407 19150.3 -14997.0 -38.0652 24323.8
 06 11 2023  10 42  03.9399 19150.1 -14997.1 -38.0655 24323.7
 06 11 2023  10 43  03.9390 19150.2 -14997.1 -38.0655 24323.8
 06 11 2023  10 44  03.9390 19150.4 -14997.2 -38.0654 24323.9
 06 11 2023  10 45  03.9392 19150.4 -14997.3 -38.0654 24324.0
 06 11 2023  10 46  03.9395 19150.4 -14997.3 -38.0656 24324.0
 06 11 2023  10 47  03.9400 19150.2 -14997.3 -38.0659 24323.9
 06 11 2023  10 48  03.9404 19150.1 -14997.3 -38.0660 24323.8
 06 11 2023  10 49  03.9397 19150.3 -14997.4 -38.0658 24324.0
 06 11 2023  10 50  03.9391 19150.7 -14997.4 -38.0652 24324.3
 06 11 2023  10 51  03.9393 19150.9 -14997.4 -38.0651 24324.5
 06 11 2023  10 52  03.9392 19150.4 -14997.5 -38.0660 24324.1
 06 11 2023  10 53  03.9383 19149.7 -14997.6 -38.0670 24323.6
 06 11 2023  10 54  03.9357 19150.0 -14997.7 -38.0668 24323.9
 06 11 2023  10 55  03.9333 19150.3 -14997.9 -38.0668 24324.2
 06 11 2023  10 56  03.9314 19150.4 -14998.0 -38.0668 24324.5
 06 11 2023  10 57  03.9302 19150.6 -14998.2 -38.0668 24324.7
 06 11 2023  10 58  03.9291 19150.6 -14998.3 -38.0671 24324.8
 06 11 2023  10 59  03.9289 19150.8 -14998.4 -38.0670 24325.0
 06 11 2023  11 00  03.9270 19150.9 -14998.5 -38.0671 24325.1
 06 11 2023  11 01  03.9262 19151.4 -14998.7 -38.0666 24325.7
 06 11 2023  11 02  03.9262 19151.2 -14998.8 -38.0673 24325.6
 06 11 2023  11 03  03.9269 19151.0 -14999.0 -38.0678 24325.5
 06 11 2023  11 04  03.9262 19151.5 -14999.0 -38.0671 24325.9
 06 11 2023  11 05  03.9259 19151.6 -14999.0 -38.0669 24325.9
 06 11 2023  11 06  03.9255 19151.7 -14999.0 -38.0669 24326.1
 06 11 2023  11 07  03.9248 19151.7 -14999.1 -38.0670 24326.1
 06 11 2023  11 08  03.9238 19151.9 -14999.1 -38.0667 24326.3
 06 11 2023  11 09  03.9241 19152.3 -14999.2 -38.0663 24326.7
 06 11 2023  11 10  03.9230 19152.0 -14999.3 -38.0669 24326.5
 06 11 2023  11 11  03.9215 19152.2 -14999.4 -38.0669 24326.7
 06 11 2023  11 12  03.9206 19152.3 -14999.5 -38.0670 24326.8
 06 11 2023  11 13  03.9195 19152.0 -14999.6 -38.0675 24326.7
 06 11 2023  11 14  03.9185 19151.8 -14999.8 -38.0681 24326.6
 06 11 2023  11 15  03.9179 19151.8 -14999.9 -38.0684 24326.7
 06 11 2023  11 16  03.9179 19151.4 -15000.0 -38.0692 24326.5
 06 11 2023  11 17  03.9188 19150.8 -15000.1 -38.0702 24326.0
 06 11 2023  11 18  03.9196 19150.3 -15000.2 -38.0709 24325.7
 06 11 2023  11 19  03.9203 19150.2 -15000.2 -38.0713 24325.6
 06 11 2023  11 20  03.9213 19149.6 -15000.2 -38.0720 24325.1
 06 11 2023  11 21  03.9212 19148.7 -15000.2 -38.0734 24324.5
 06 11 2023  11 22  03.9214 19148.1 -15000.3 -38.0745 24324.0
 06 11 2023  11 23  03.9208 19147.6 -15000.3 -38.0752 24323.7
 06 11 2023  11 24  03.9206 19147.6 -15000.4 -38.0753 24323.7
 06 11 2023  11 25  03.9201 19147.5 -15000.5 -38.0756 24323.7
 06 11 2023  11 26  03.9198 19147.3 -15000.5 -38.0759 24323.5
 06 11 2023  11 27  03.9188 19147.3 -15000.6 -38.0762 24323.6
 06 11 2023  11 28  03.9181 19147.3 -15000.6 -38.0763 24323.6
 06 11 2023  11 29  03.9178 19147.5 -15000.6 -38.0760 24323.7
 06 11 2023  11 30  03.9172 19147.4 -15000.7 -38.0762 24323.7
 06 11 2023  11 31  03.9170 19146.9 -15000.7 -38.0769 24323.3
 06 11 2023  11 32  03.9169 19148.8 -14998.9 -38.0708 24323.8
 06 11 2023  11 33  03.9157 19146.8 -15000.3 -38.0763 24323.0
 06 11 2023  11 34  03.9144 19147.3 -15000.5 -38.0760 24323.6
 06 11 2023  11 35  03.9131 19147.9 -15000.5 -38.0752 24324.0
 06 11 2023  11 36  03.9132 19148.3 -15000.7 -38.0749 24324.4
 06 11 2023  11 37  03.9123 19148.4 -15000.7 -38.0749 24324.5
 06 11 2023  11 38  03.9110 19148.0 -15000.7 -38.0754 24324.2
 06 11 2023  11 39  03.9095 19147.9 -15000.7 -38.0755 24324.1
 06 11 2023  11 40  03.9083 19147.8 -15000.7 -38.0757 24324.1
 06 11 2023  11 41  03.9073 19147.9 -15000.8 -38.0757 24324.2
 06 11 2023  11 42  03.9059 19148.1 -15000.8 -38.0755 24324.4
 06 11 2023  11 43  03.9053 19148.3 -15000.8 -38.0752 24324.5
 06 11 2023  11 44  03.9050 19148.4 -15000.8 -38.0749 24324.6
 06 11 2023  11 45  03.9040 19148.6 -15000.8 -38.0746 24324.7
 06 11 2023  11 46  03.9043 19149.0 -15000.7 -38.0739 24325.0
 06 11 2023  11 47  03.9035 19149.4 -15000.6 -38.0732 24325.3
 06 11 2023  11 48  03.9036 19149.9 -15000.6 -38.0725 24325.6
 06 11 2023  11 49  03.9033 19149.8 -15000.5 -38.0723 24325.5
 06 11 2023  11 50  03.9025 19149.7 -15000.4 -38.0724 24325.3
 06 11 2023  11 51  03.9019 19149.7 -15000.4 -38.0724 24325.3
 06 11 2023  11 52  03.9011 19150.1 -15000.4 -38.0716 24325.7
 06 11 2023  11 53  03.9006 19150.5 -15000.3 -38.0709 24325.9
 06 11 2023  11 54  03.9009 19150.6 -15000.2 -38.0706 24325.9
 06 11 2023  11 55  03.8992 19151.1 -15000.1 -38.0697 24326.2
 06 11 2023  11 56  03.8971 19151.9 -15000.0 -38.0684 24326.9
 06 11 2023  11 57  03.8944 19152.0 -14999.9 -38.0680 24326.9
 06 11 2023  11 58  03.8943 19151.1 -14999.9 -38.0692 24326.1
 06 11 2023  11 59  03.8944 19151.1 -14999.9 -38.0694 24326.1
 06 11 2023  12 00  03.8943 19150.7 -14999.8 -38.0697 24325.8
 06 11 2023  12 01  03.8946 19150.6 -14999.6 -38.0697 24325.6
 06 11 2023  12 02  03.8941 19150.6 -14999.5 -38.0694 24325.5
 06 11 2023  12 03  03.8935 19150.6 -14999.3 -38.0689 24325.4
 06 11 2023  12 04  03.8930 19150.4 -14999.0 -38.0688 24325.0
 06 11 2023  12 05  03.8932 19150.0 -14998.9 -38.0690 24324.7
 06 11 2023  12 06  03.8936 19149.6 -14998.8 -38.0695 24324.3
 06 11 2023  12 07  03.8937 19149.2 -14998.7 -38.0700 24323.9
 06 11 2023  12 08  03.8928 19148.6 -14998.6 -38.0706 24323.4
 06 11 2023  12 09  03.8936 19148.2 -14998.5 -38.0711 24323.0
 06 11 2023  12 10  03.8937 19148.2 -14998.4 -38.0709 24323.0
 06 11 2023  12 11  03.8931 19148.2 -14998.3 -38.0706 24322.9
 06 11 2023  12 12  03.8918 19148.2 -14998.2 -38.0704 24322.8
 06 11 2023  12 13  03.8917 19148.0 -14998.2 -38.0707 24322.6
 06 11 2023  12 14  03.8920 19147.9 -14998.1 -38.0707 24322.5
 06 11 2023  12 15  03.8914 19148.5 -14997.9 -38.0695 24322.9
 06 11 2023  12 16  03.8912 19148.9 -14997.8 -38.0687 24323.1
 06 11 2023  12 17  03.8912 19148.9 -14997.6 -38.0684 24323.0
 06 11 2023  12 18  03.8906 19149.4 -14997.5 -38.0674 24323.3
 06 11 2023  12 19  03.8883 19151.8 -14996.7 -38.0625 24324.8
 06 11 2023  12 20  03.8950 19150.1 -14994.4 -38.0607 24321.9
 06 11 2023  12 21  03.8910 19149.4 -14997.3 -38.0670 24323.2
 06 11 2023  12 22  03.8898 19149.5 -14997.2 -38.0666 24323.2
 06 11 2023  12 23  03.8883 19149.3 -14997.0 -38.0666 24323.0
 06 11 2023  12 24  03.8868 19149.4 -14997.0 -38.0666 24323.0
 06 11 2023  12 25  03.8861 19149.7 -14996.9 -38.0658 24323.2
 06 11 2023  12 26  03.8865 19150.2 -14996.8 -38.0649 24323.6
 06 11 2023  12 27  03.8874 19150.3 -14996.6 -38.0644 24323.5
 06 11 2023  12 28  03.8873 19150.4 -14996.4 -38.0639 24323.4
 06 11 2023  12 29  03.8881 19150.8 -14996.2 -38.0630 24323.6
 06 11 2023  12 30  03.8881 19151.0 -14996.0 -38.0623 24323.6
 06 11 2023  12 31  03.8879 19151.0 -14995.8 -38.0619 24323.5
 06 11 2023  12 32  03.8878 19151.5 -14995.6 -38.0609 24323.8
 06 11 2023  12 33  03.8874 19151.7 -14995.4 -38.0601 24323.8
 06 11 2023  12 34  03.8872 19151.5 -14995.2 -38.0600 24323.5
 06 11 2023  12 35  03.8871 19151.7 -14995.0 -38.0594 24323.6
 06 11 2023  12 36  03.8866 19152.3 -14994.8 -38.0582 24324.0
 06 11 2023  12 37  03.8859 19153.3 -14994.7 -38.0565 24324.6
 06 11 2023  12 38  03.8862 19154.1 -14994.4 -38.0549 24325.1
 06 11 2023  12 39  03.8873 19154.3 -14994.2 -38.0542 24325.1
 06 11 2023  12 40  03.8882 19154.5 -14993.8 -38.0532 24325.1
 06 11 2023  12 41  03.8884 19154.1 -14993.6 -38.0532 24324.6
 06 11 2023  12 42  03.8891 19153.9 -14993.4 -38.0531 24324.4
 06 11 2023  12 43  03.8894 19153.7 -14993.1 -38.0530 24324.0
 06 11 2023  12 44  03.8906 19153.5 -14992.9 -38.0530 24323.7
 06 11 2023  12 45  03.8929 19153.6 -14992.7 -38.0524 24323.6
 06 11 2023  12 46  03.8947 19153.6 -14992.4 -38.0518 24323.5
 06 11 2023  12 47  03.8956 19153.4 -14992.1 -38.0515 24323.1
 06 11 2023  12 48  03.8964 19152.7 -14991.8 -38.0519 24322.4
 06 11 2023  12 49  03.8973 19153.0 -14991.6 -38.0512 24322.5
 06 11 2023  12 50  03.8979 19153.1 -14991.3 -38.0505 24322.4
 06 11 2023  12 51  03.8993 19152.8 -14991.0 -38.0505 24322.0
 06 11 2023  12 52  03.9013 19152.4 -14990.7 -38.0505 24321.5
 06 11 2023  12 53  03.9033 19152.1 -14990.5 -38.0504 24321.2
 06 11 2023  12 54  03.9046 19152.0 -14990.2 -38.0500 24320.9
 06 11 2023  12 55  03.9056 19151.3 -14989.9 -38.0506 24320.1
 06 11 2023  12 56  03.9069 19150.5 -14989.6 -38.0512 24319.3
 06 11 2023  12 57  03.9077 19150.3 -14989.4 -38.0510 24319.0
 06 11 2023  12 58  03.9090 19150.4 -14989.1 -38.0505 24318.9
 06 11 2023  12 59  03.9097 19150.3 -14988.9 -38.0501 24318.7
 06 11 2023  13 00  03.9097 19150.0 -14988.6 -38.0501 24318.3
 06 11 2023  13 01  03.9097 19149.5 -14988.4 -38.0505 24317.8
 06 11 2023  13 02  03.9105 19149.3 -14988.2 -38.0503 24317.5
 06 11 2023  13 03  03.9104 19148.8 -14988.0 -38.0506 24317.0
 06 11 2023  13 04  03.9103 19148.3 -14987.9 -38.0512 24316.5
 06 11 2023  13 05  03.9110 19147.5 -14987.8 -38.0521 24315.8
 06 11 2023  13 06  03.9124 19146.7 -14987.7 -38.0531 24315.1
 06 11 2023  13 07  03.9129 19145.6 -14987.5 -38.0545 24314.2
 06 11 2023  13 08  03.9133 19145.3 -14987.5 -38.0549 24313.9
 06 11 2023  13 09  03.9134 19145.6 -14987.4 -38.0542 24314.2
 06 11 2023  13 10  03.9134 19146.3 -14987.3 -38.0529 24314.5
 06 11 2023  13 11  03.9133 19146.5 -14987.0 -38.0522 24314.6
 06 11 2023  13 12  03.9133 19146.1 -14986.8 -38.0524 24314.1
 06 11 2023  13 13  03.9135 19145.8 -14986.7 -38.0526 24313.8
 06 11 2023  13 14  03.9138 19145.9 -14986.5 -38.0521 24313.8
 06 11 2023  13 15  03.9145 19145.6 -14986.3 -38.0521 24313.4
 06 11 2023  13 16  03.9154 19145.0 -14986.1 -38.0527 24312.9
 06 11 2023  13 17  03.9168 19145.0 -14985.9 -38.0523 24312.8
 06 11 2023  13 18  03.9171 19145.0 -14985.7 -38.0519 24312.6
 06 11 2023  13 19  03.9171 19145.1 -14985.5 -38.0515 24312.5
 06 11 2023  13 20  03.9181 19145.6 -14985.3 -38.0502 24312.8
 06 11 2023  13 21  03.9186 19146.1 -14984.9 -38.0488 24313.0
 06 11 2023  13 22  03.9181 19146.4 -14984.6 -38.0479 24313.1
 06 11 2023  13 23  03.9173 19146.5 -14984.4 -38.0473 24313.0
 06 11 2023  13 24  03.9169 19146.7 -14984.1 -38.0465 24313.0
 06 11 2023  13 25  03.9175 19147.2 -14983.9 -38.0454 24313.2
 06 11 2023  13 26  03.9181 19147.6 -14983.6 -38.0443 24313.3
 06 11 2023  13 27  03.9184 19147.7 -14983.3 -38.0436 24313.2
 06 11 2023  13 28  03.9189 19147.9 -14983.0 -38.0427 24313.3
 06 11 2023  13 29  03.9189 19148.1 -14982.8 -38.0419 24313.2
 06 11 2023  13 30  03.9188 19148.1 -14982.5 -38.0415 24313.1
 06 11 2023  13 31  03.9177 19147.7 -14982.3 -38.0418 24312.6
 06 11 2023  13 32  03.9170 19147.0 -14982.2 -38.0425 24312.0
 06 11 2023  13 33  03.9166 19147.0 -14982.1 -38.0424 24311.9
 06 11 2023  13 34  03.9168 19147.3 -14982.0 -38.0417 24312.1
 06 11 2023  13 35  03.9177 19147.8 -14981.8 -38.0405 24312.3
 06 11 2023  13 36  03.9186 19148.7 -14981.5 -38.0387 24312.9
 06 11 2023  13 37  03.9191 19149.3 -14981.2 -38.0372 24313.2
 06 11 2023  13 38  03.9200 19149.5 -14980.9 -38.0363 24313.2
 06 11 2023  13 39  03.9207 19149.6 -14980.5 -38.0356 24313.0
 06 11 2023  13 40  03.9209 19149.5 -14980.3 -38.0353 24312.7
 06 11 2023  13 41  03.9215 19149.7 -14980.0 -38.0345 24312.8
 06 11 2023  13 42  03.9225 19150.3 -14979.7 -38.0331 24313.1
 06 11 2023  13 43  03.9231 19150.9 -14979.4 -38.0316 24313.4
 06 11 2023  13 44  03.9225 19151.0 -14979.1 -38.0309 24313.2
 06 11 2023  13 45  03.9216 19150.4 -14978.8 -38.0313 24312.6
 06 11 2023  13 46  03.9217 19150.0 -14978.7 -38.0315 24312.2
 06 11 2023  13 47  03.9228 19150.3 -14978.5 -38.0308 24312.4
 06 11 2023  13 48  03.9237 19151.5 -14978.3 -38.0286 24313.2
 06 11 2023  13 49  03.9241 19152.6 -14978.0 -38.0265 24313.8
 06 11 2023  13 50  03.9239 19153.1 -14977.7 -38.0252 24314.0
 06 11 2023  13 51  03.9244 19153.2 -14977.3 -38.0245 24313.9
 06 11 2023  13 52  03.9254 19153.2 -14977.1 -38.0240 24313.7
 06 11 2023  13 53  03.9267 19153.8 -14976.8 -38.0227 24314.0
 06 11 2023  13 54  03.9282 19154.8 -14976.5 -38.0204 24314.6
 06 11 2023  13 55  03.9293 19155.4 -14976.1 -38.0189 24314.9
 06 11 2023  13 56  03.9300 19155.6 -14975.7 -38.0179 24314.8
 06 11 2023  13 57  03.9310 19156.0 -14975.4 -38.0168 24314.9
 06 11 2023  13 58  03.9319 19156.0 -14975.1 -38.0162 24314.8
 06 11 2023  13 59  03.9328 19155.9 -14974.8 -38.0159 24314.5
 06 11 2023  14 00  03.9330 19156.2 -14974.6 -38.0151 24314.6
 06 11 2023  14 01  03.9322 19157.5 -14974.5 -38.0130 24315.5
 06 11 2023  14 02  03.9319 19157.8 -14974.2 -38.0120 24315.5
 06 11 2023  14 03  03.9313 19157.1 -14974.0 -38.0125 24315.0
 06 11 2023  14 04  03.9317 19157.5 -14973.9 -38.0118 24315.2
 06 11 2023  14 05  03.9330 19158.2 -14973.7 -38.0104 24315.5
 06 11 2023  14 06  03.9352 19159.0 -14973.4 -38.0086 24316.0
 06 11 2023  14 07  03.9372 19160.0 -14973.1 -38.0067 24316.7
 06 11 2023  14 08  03.9385 19160.6 -14972.8 -38.0054 24316.9
 06 11 2023  14 09  03.9397 19160.5 -14972.6 -38.0050 24316.7
 06 11 2023  14 10  03.9401 19159.9 -14972.4 -38.0055 24316.1
 06 11 2023  14 11  03.9398 19158.8 -14972.3 -38.0069 24315.2
 06 11 2023  14 12  03.9398 19158.2 -14972.2 -38.0076 24314.7
 06 11 2023  14 13  03.9402 19157.2 -14972.2 -38.0090 24313.9
 06 11 2023  14 14  03.9405 19156.6 -14972.3 -38.0101 24313.5
 06 11 2023  14 15  03.9408 19156.1 -14972.3 -38.0110 24313.0
 06 11 2023  14 16  03.9412 19155.2 -14972.3 -38.0123 24312.4
 06 11 2023  14 17  03.9432 19155.7 -14972.4 -38.0116 24312.8
 06 11 2023  14 18  03.9455 19156.6 -14972.2 -38.0100 24313.4
 06 11 2023  14 19  03.9465 19156.4 -14972.0 -38.0100 24313.1
 06 11 2023  14 20  03.9470 19155.8 -14972.0 -38.0106 24312.7
 06 11 2023  14 21  03.9456 19155.2 -14972.0 -38.0117 24312.2
 06 11 2023  14 22  03.9449 19155.0 -14972.2 -38.0122 24312.1
 06 11 2023  14 23  03.9443 19154.5 -14972.2 -38.0130 24311.7
 06 11 2023  14 24  03.9473 19154.0 -14972.3 -38.0139 24311.4
 06 11 2023  14 25  03.9480 19154.2 -14972.3 -38.0137 24311.6
 06 11 2023  14 26  03.9493 19154.8 -14972.3 -38.0128 24312.0
 06 11 2023  14 27  03.9502 19154.9 -14972.2 -38.0125 24312.1
 06 11 2023  14 28  03.9505 19155.0 -14972.2 -38.0122 24312.1
 06 11 2023  14 29  03.9505 19155.1 -14972.1 -38.0121 24312.2
 06 11 2023  14 30  03.9502 19154.8 -14972.1 -38.0124 24311.9
 06 11 2023  14 31  03.9498 19154.0 -14972.1 -38.0136 24311.3
 06 11 2023  14 32  03.9495 19153.1 -14972.2 -38.0150 24310.7
 06 11 2023  14 33  03.9510 19153.4 -14972.2 -38.0147 24310.9
 06 11 2023  14 34  03.9516 19153.6 -14972.3 -38.0145 24311.1
 06 11 2023  14 35  03.9538 19154.1 -14972.2 -38.0136 24311.5
 06 11 2023  14 36  03.9557 19155.2 -14972.1 -38.0118 24312.2
 06 11 2023  14 37  03.9577 19156.5 -14971.8 -38.0094 24313.1
 06 11 2023  14 38  03.9588 19157.0 -14971.5 -38.0082 24313.3
 06 11 2023  14 39  03.9586 19156.9 -14971.3 -38.0080 24313.1
 06 11 2023  14 40  03.9577 19156.7 -14971.3 -38.0081 24312.9
 06 11 2023  14 41  03.9581 19157.3 -14971.2 -38.0071 24313.3
 06 11 2023  14 42  03.9595 19157.7 -14971.0 -38.0061 24313.6
 06 11 2023  14 43  03.9598 19157.6 -14970.9 -38.0061 24313.3
 06 11 2023  14 44  03.9602 19157.5 -14970.8 -38.0060 24313.2
 06 11 2023  14 45  03.9601 19156.9 -14970.6 -38.0065 24312.7
 06 11 2023  14 46  03.9594 19156.4 -14970.7 -38.0075 24312.3
 06 11 2023  14 47  03.9589 19156.2 -14970.6 -38.0077 24312.1
 06 11 2023  14 48  03.9580 19155.5 -14970.7 -38.0087 24311.6
 06 11 2023  14 49  03.9577 19155.6 -14970.7 -38.0086 24311.7
 06 11 2023  14 50  03.9583 19155.8 -14970.6 -38.0083 24311.8
 06 11 2023  14 51  03.9590 19156.0 -14970.6 -38.0078 24312.0
 06 11 2023  14 52  03.9606 19156.4 -14970.5 -38.0070 24312.2
 06 11 2023  14 53  03.9613 19156.9 -14970.3 -38.0060 24312.5
 06 11 2023  14 54  03.9612 19156.8 -14970.2 -38.0059 24312.3
 06 11 2023  14 55  03.9601 19156.9 -14970.1 -38.0055 24312.4
 06 11 2023  14 56  03.9586 19157.0 -14970.0 -38.0053 24312.4
 06 11 2023  14 57  03.9587 19158.1 -14969.9 -38.0036 24313.2
 06 11 2023  14 58  03.9611 19159.4 -14969.6 -38.0011 24314.1
 06 11 2023  14 59  03.9640 19160.7 -14969.3 -37.9987 24314.8
 06 11 2023  15 00  03.9661 19161.4 -14968.9 -37.9970 24315.1
 06 11 2023  15 01  03.9673 19161.9 -14968.6 -37.9956 24315.4
 06 11 2023  15 02  03.9673 19161.2 -14968.3 -37.9961 24314.6
 06 11 2023  15 03  03.9663 19160.4 -14968.2 -37.9970 24313.9
 06 11 2023  15 04  03.9656 19159.9 -14968.1 -37.9976 24313.5
 06 11 2023  15 05  03.9656 19159.5 -14968.1 -37.9981 24313.2
 06 11 2023  15 06  03.9653 19159.3 -14968.0 -37.9984 24312.9
 06 11 2023  15 07  03.9661 19159.2 -14968.0 -37.9984 24312.8
 06 11 2023  15 08  03.9668 19159.5 -14967.9 -37.9978 24313.0
 06 11 2023  15 09  03.9665 19159.6 -14967.8 -37.9974 24313.1
 06 11 2023  15 10  03.9675 19160.1 -14967.7 -37.9965 24313.4
 06 11 2023  15 11  03.9686 19160.5 -14967.5 -37.9955 24313.6
 06 11 2023  15 12  03.9696 19161.0 -14967.3 -37.9945 24313.8
 06 11 2023  15 13  03.9706 19161.3 -14967.0 -37.9936 24313.9
 06 11 2023  15 14  03.9719 19161.5 -14966.8 -37.9929 24314.0
 06 11 2023  15 15  03.9719 19161.7 -14966.7 -37.9923 24314.0
 06 11 2023  15 16  03.9732 19162.2 -14966.5 -37.9913 24314.3
 06 11 2023  15 17  03.9744 19162.2 -14966.3 -37.9909 24314.2
 06 11 2023  15 18  03.9749 19161.7 -14966.2 -37.9914 24313.7
 06 11 2023  15 19  03.9752 19161.4 -14966.1 -37.9917 24313.4
 06 11 2023  15 20  03.9758 19161.3 -14966.0 -37.9917 24313.4
 06 11 2023  15 21  03.9768 19161.5 -14965.9 -37.9913 24313.4
 06 11 2023  15 22  03.9769 19161.0 -14965.8 -37.9917 24313.0
 06 11 2023  15 23  03.9766 19160.6 -14965.8 -37.9923 24312.6
 06 11 2023  15 24  03.9768 19160.4 -14965.8 -37.9926 24312.5
 06 11 2023  15 25  03.9775 19160.8 -14965.8 -37.9919 24312.8
 06 11 2023  15 26  03.9790 19161.4 -14965.7 -37.9909 24313.2
 06 11 2023  15 27  03.9805 19162.1 -14965.5 -37.9896 24313.6
 06 11 2023  15 28  03.9803 19162.2 -14965.3 -37.9890 24313.6
 06 11 2023  15 29  03.9807 19162.8 -14965.2 -37.9879 24314.0
 06 11 2023  15 30  03.9809 19163.2 -14965.0 -37.9870 24314.2
 06 11 2023  15 31  03.9814 19164.1 -14964.9 -37.9855 24314.8
 06 11 2023  15 32  03.9820 19164.6 -14964.7 -37.9844 24315.1
 06 11 2023  15 33  03.9821 19164.9 -14964.5 -37.9836 24315.2
 06 11 2023  15 34  03.9828 19165.2 -14964.3 -37.9829 24315.4
 06 11 2023  15 35  03.9831 19165.4 -14964.2 -37.9824 24315.4
 06 11 2023  15 36  03.9839 19165.5 -14964.1 -37.9820 24315.4
 06 11 2023  15 37  03.9850 19165.1 -14963.9 -37.9822 24315.0
 06 11 2023  15 38  03.9851 19164.3 -14963.9 -37.9833 24314.4
 06 11 2023  15 39  03.9857 19164.0 -14963.8 -37.9837 24314.1
 06 11 2023  15 40  03.9873 19164.5 -14963.8 -37.9829 24314.5
 06 11 2023  15 41  03.9888 19164.7 -14963.6 -37.9824 24314.5
 06 11 2023  15 42  03.9878 19164.0 -14963.6 -37.9832 24314.0
 06 11 2023  15 43  03.9879 19164.2 -14963.6 -37.9829 24314.1
 06 11 2023  15 44  03.9890 19164.7 -14963.5 -37.9821 24314.4
 06 11 2023  15 45  03.9891 19164.6 -14963.4 -37.9821 24314.3
 06 11 2023  15 46  03.9895 19164.5 -14963.4 -37.9822 24314.2
 06 11 2023  15 47  03.9910 19164.6 -14963.3 -37.9818 24314.3
 06 11 2023  15 48  03.9911 19165.0 -14963.3 -37.9812 24314.6
 06 11 2023  15 49  03.9916 19165.6 -14963.2 -37.9802 24315.0
 06 11 2023  15 50  03.9923 19166.6 -14963.1 -37.9786 24315.7
 06 11 2023  15 51  03.9938 19168.3 -14962.9 -37.9757 24316.9
 06 11 2023  15 52  03.9963 19169.7 -14962.6 -37.9730 24317.8
 06 11 2023  15 53  03.9984 19170.6 -14962.2 -37.9711 24318.3
 06 11 2023  15 54  03.9990 19170.9 -14961.9 -37.9701 24318.3
 06 11 2023  15 55  03.9976 19170.5 -14961.7 -37.9703 24318.0
 06 11 2023  15 56  03.9978 19170.3 -14961.7 -37.9705 24317.8
 06 11 2023  15 57  03.9984 19170.7 -14961.7 -37.9700 24318.0
 06 11 2023  15 58  03.9998 19171.7 -14961.5 -37.9682 24318.8
 06 11 2023  15 59  03.9995 19171.3 -14961.4 -37.9686 24318.3
 06 11 2023  16 00  03.9992 19171.0 -14961.4 -37.9690 24318.1
 06 11 2023  16 01  03.9991 19170.9 -14961.4 -37.9691 24318.0
 06 11 2023  16 02  03.9987 19170.8 -14961.4 -37.9693 24318.0
 06 11 2023  16 03  03.9986 19171.0 -14961.4 -37.9691 24318.1
 06 11 2023  16 04  03.9984 19171.1 -14961.4 -37.9690 24318.2
 06 11 2023  16 05  03.9991 19171.5 -14961.4 -37.9684 24318.5
 06 11 2023  16 06  04.0000 19171.7 -14961.4 -37.9680 24318.6
 06 11 2023  16 07  04.0004 19171.8 -14961.3 -37.9678 24318.7
 06 11 2023  16 08  04.0013 19172.3 -14961.3 -37.9670 24319.1
 06 11 2023  16 09  04.0018 19172.5 -14961.3 -37.9666 24319.2
 06 11 2023  16 10  04.0017 19172.3 -14961.2 -37.9668 24319.0
 06 11 2023  16 11  04.0013 19171.9 -14961.2 -37.9674 24318.7
 06 11 2023  16 12  04.0017 19170.7 -14961.3 -37.9692 24317.8
 06 11 2023  16 13  04.0001 19169.0 -14961.5 -37.9721 24316.6
 06 11 2023  16 14  03.9981 19167.7 -14961.8 -37.9746 24315.8
 06 11 2023  16 15  03.9979 19167.6 -14962.1 -37.9753 24315.9
 06 11 2023  16 16  03.9976 19167.7 -14962.3 -37.9755 24316.1
 06 11 2023  16 17  03.9971 19168.0 -14962.5 -37.9754 24316.4
 06 11 2023  16 18  03.9991 19168.7 -14962.6 -37.9745 24317.0
 06 11 2023  16 19  04.0014 19168.8 -14962.5 -37.9743 24317.1
 06 11 2023  16 20  04.0041 19168.0 -14962.5 -37.9754 24316.5
 06 11 2023  16 21  04.0045 19166.2 -14962.6 -37.9782 24315.0
 06 11 2023  16 22  04.0023 19165.3 -14962.9 -37.9801 24314.5
 06 11 2023  16 23  03.9993 19165.1 -14963.2 -37.9808 24314.6
 06 11 2023  16 24  03.9991 19166.0 -14963.3 -37.9799 24315.4
 06 11 2023  16 25  03.9983 19167.4 -14963.4 -37.9781 24316.5
 06 11 2023  16 26  03.9978 19169.0 -14963.4 -37.9757 24317.8
 06 11 2023  16 27  04.0008 19171.6 -14963.3 -37.9717 24319.7
 06 11 2023  16 28  04.0072 19174.4 -14962.8 -37.9667 24321.6
 06 11 2023  16 29  04.0131 19176.4 -14962.1 -37.9625 24322.8
 06 11 2023  16 30  04.0155 19176.7 -14961.5 -37.9610 24322.7
 06 11 2023  16 31  04.0148 19175.7 -14961.2 -37.9619 24321.7
 06 11 2023  16 32  04.0137 19174.6 -14961.2 -37.9633 24320.8
 06 11 2023  16 33  04.0102 19173.5 -14961.3 -37.9653 24320.0
 06 11 2023  16 34  04.0112 19174.7 -14961.5 -37.9639 24321.0
 06 11 2023  16 35  04.0161 19176.9 -14961.3 -37.9603 24322.7
 06 11 2023  16 36  04.0213 19178.6 -14960.9 -37.9571 24323.8
 06 11 2023  16 37  04.0243 19179.2 -14960.4 -37.9553 24324.0
 06 11 2023  16 38  04.0209 19177.9 -14960.2 -37.9569 24322.8
 06 11 2023  16 39  04.0184 19175.9 -14960.3 -37.9598 24321.3
 06 11 2023  16 40  04.0180 19177.7 -14960.6 -37.9577 24322.9
 06 11 2023  16 41  04.0269 19184.1 -14960.2 -37.9479 24327.7
 06 11 2023  16 42  04.0314 19186.3 -14959.4 -37.9432 24328.9
 06 11 2023  16 43  04.0324 19187.2 -14958.8 -37.9407 24329.3
 06 11 2023  16 44  04.0343 19188.2 -14958.3 -37.9385 24329.8
 06 11 2023  16 45  04.0357 19187.8 -14957.9 -37.9383 24329.2
 06 11 2023  16 46  04.0335 19185.7 -14957.8 -37.9410 24327.4
 06 11 2023  16 47  04.0319 19183.0 -14957.9 -37.9452 24325.4
 06 11 2023  16 48  04.0262 19178.9 -14958.3 -37.9517 24322.4
 06 11 2023  16 49  04.0220 19176.4 -14958.9 -37.9567 24320.8
 06 11 2023  16 50  04.0195 19174.6 -14959.6 -37.9604 24319.9
 06 11 2023  16 51  04.0204 19174.6 -14960.1 -37.9614 24320.1
 06 11 2023  16 52  04.0233 19176.0 -14960.3 -37.9598 24321.4
 06 11 2023  16 53  04.0301 19178.9 -14960.3 -37.9555 24323.6
 06 11 2023  16 54  04.0373 19182.0 -14959.8 -37.9501 24325.8
 06 11 2023  16 55  04.0441 19185.7 -14959.2 -37.9436 24328.3
 06 11 2023  16 56  04.0511 19189.0 -14958.3 -37.9372 24330.4
 06 11 2023  16 57  04.0562 19191.7 -14957.4 -37.9316 24332.0
 06 11 2023  16 58  04.0594 19193.1 -14956.6 -37.9281 24332.6
 06 11 2023  16 59  04.0640 19194.8 -14955.9 -37.9243 24333.5
 06 11 2023  17 00  04.0657 19195.5 -14955.2 -37.9221 24333.6
 06 11 2023  17 01  04.0692 19196.9 -14954.6 -37.9190 24334.3
 06 11 2023  17 02  04.0721 19197.0 -14954.0 -37.9176 24334.1
 06 11 2023  17 03  04.0739 19197.4 -14953.5 -37.9162 24334.0
 06 11 2023  17 04  04.0750 19197.7 -14953.1 -37.9149 24334.0
 06 11 2023  17 05  04.0736 19197.0 -14952.8 -37.9154 24333.4
 06 11 2023  17 06  04.0697 19195.4 -14952.8 -37.9177 24332.1
 06 11 2023  17 07  04.0693 19194.4 -14952.9 -37.9194 24331.3
 06 11 2023  17 08  04.0678 19192.3 -14953.0 -37.9227 24329.8
 06 11 2023  17 09  04.0676 19190.2 -14953.3 -37.9262 24328.3
 06 11 2023  17 10  04.0622 19187.5 -14953.7 -37.9309 24326.3
 06 11 2023  17 11  04.0595 19186.9 -14954.3 -37.9328 24326.3
 06 11 2023  17 12  04.0617 19187.8 -14954.5 -37.9320 24327.1
 06 11 2023  17 13  04.0627 19187.2 -14954.6 -37.9329 24326.8
 06 11 2023  17 14  04.0626 19186.3 -14954.8 -37.9346 24326.1
 06 11 2023  17 15  04.0625 19185.1 -14955.0 -37.9367 24325.3
 06 11 2023  17 16  04.0652 19185.5 -14955.2 -37.9365 24325.7
 06 11 2023  17 17  04.0705 19186.3 -14955.1 -37.9352 24326.3
 06 11 2023  17 18  04.0713 19188.0 -14954.9 -37.9323 24327.5
 06 11 2023  17 19  04.0760 19189.7 -14954.5 -37.9292 24328.6
 06 11 2023  17 20  04.0819 19189.8 -14954.0 -37.9280 24328.4
 06 11 2023  17 21  04.0834 19190.0 -14953.6 -37.9270 24328.2
 06 11 2023  17 22  04.0839 19189.4 -14953.2 -37.9271 24327.6
 06 11 2023  17 23  04.0843 19189.3 -14953.1 -37.9272 24327.4
 06 11 2023  17 24  04.0877 19189.4 -14952.9 -37.9266 24327.4
 06 11 2023  17 25  04.0884 19187.5 -14952.7 -37.9291 24325.8
 06 11 2023  17 26  04.0881 19186.2 -14952.8 -37.9309 24324.8
 06 11 2023  17 27  04.0876 19185.0 -14952.9 -37.9329 24323.9
 06 11 2023  17 28  04.0874 19183.5 -14953.0 -37.9353 24322.9
 06 11 2023  17 29  04.0875 19183.1 -14953.2 -37.9363 24322.6
 06 11 2023  17 30  04.0898 19182.3 -14953.3 -37.9376 24322.1
 06 11 2023  17 31  04.0892 19180.5 -14953.5 -37.9405 24320.8
 06 11 2023  17 32  04.0877 19179.4 -14953.8 -37.9427 24320.1
 06 11 2023  17 33  04.0882 19177.4 -14954.0 -37.9461 24318.6
 06 11 2023  17 34  04.0881 19175.3 -14954.4 -37.9498 24317.2
 06 11 2023  17 35  04.0907 19175.5 -14954.7 -37.9501 24317.5
 06 11 2023  17 36  04.0860 19172.9 -14954.9 -37.9543 24315.6
 06 11 2023  17 37  04.0876 19172.1 -14955.3 -37.9561 24315.2
 06 11 2023  17 38  04.0905 19171.3 -14955.5 -37.9576 24314.7
 06 11 2023  17 39  04.0911 19169.2 -14955.7 -37.9612 24313.2
 06 11 2023  17 40  04.0992 19170.1 -14955.8 -37.9599 24313.9
 06 11 2023  17 41  04.1045 19169.4 -14955.6 -37.9605 24313.3
 06 11 2023  17 42  04.1070 19166.5 -14955.4 -37.9644 24310.8
 06 11 2023  17 43  04.1040 19162.5 -14955.6 -37.9706 24307.8
 06 11 2023  17 44  04.1041 19162.3 -14956.0 -37.9717 24307.9
 06 11 2023  17 45  04.1074 19163.1 -14956.2 -37.9708 24308.6
 06 11 2023  17 46  04.1092 19161.2 -14956.3 -37.9737 24307.3
 06 11 2023  17 47  04.1082 19159.0 -14956.5 -37.9772 24305.6
 06 11 2023  17 48  04.1096 19160.3 -14956.7 -37.9760 24306.8
 06 11 2023  17 49  04.1122 19162.1 -14956.7 -37.9733 24308.2
 06 11 2023  17 50  04.1147 19164.0 -14956.5 -37.9702 24309.6
 06 11 2023  17 51  04.1162 19163.9 -14956.3 -37.9697 24309.4
 06 11 2023  17 52  04.1174 19163.9 -14956.1 -37.9695 24309.2
 06 11 2023  17 53  04.1189 19164.5 -14956.0 -37.9684 24309.6
 06 11 2023  17 54  04.1165 19163.4 -14955.8 -37.9697 24308.7
 06 11 2023  17 55  04.1140 19162.2 -14955.9 -37.9717 24307.8
 06 11 2023  17 56  04.1115 19160.3 -14956.1 -37.9748 24306.4
 06 11 2023  17 57  04.1077 19159.6 -14956.5 -37.9764 24306.1
 06 11 2023  17 58  04.1017 19156.5 -14956.9 -37.9818 24303.9
 06 11 2023  17 59  04.0946 19151.9 -14957.7 -37.9898 24300.7
 06 11 2023  18 00  04.0874 19147.9 -14958.7 -37.9976 24298.2
 06 11 2023  18 01  04.0856 19146.5 -14959.7 -38.0015 24297.7
 06 11 2023  18 02  04.0840 19145.2 -14960.5 -38.0047 24297.2
 06 11 2023  18 03  04.0835 19144.1 -14961.1 -38.0074 24296.7
 06 11 2023  18 04  04.0805 19142.3 -14961.8 -38.0113 24295.7
 06 11 2023  18 05  04.0797 19142.5 -14962.4 -38.0122 24296.2
 06 11 2023  18 06  04.0788 19142.0 -14962.9 -38.0140 24296.2
 06 11 2023  18 07  04.0797 19141.9 -14963.3 -38.0149 24296.4
 06 11 2023  18 08  04.0802 19143.1 -14963.7 -38.0138 24297.5
 06 11 2023  18 09  04.0857 19144.7 -14963.8 -38.0117 24298.8
 06 11 2023  18 10  04.0902 19145.5 -14963.7 -38.0103 24299.4
 06 11 2023  18 11  04.0901 19144.4 -14963.6 -38.0117 24298.5
 06 11 2023  18 12  04.0862 19142.5 -14963.8 -38.0147 24297.1
 06 11 2023  18 13  04.0802 19142.0 -14964.2 -38.0163 24297.0
 06 11 2023  18 14  04.0789 19142.0 -14964.7 -38.0172 24297.3
 06 11 2023  18 15  04.0946 19145.4 -14964.7 -38.0122 24300.0
 06 11 2023  18 16  04.1048 19146.7 -14964.1 -38.0093 24300.6
 06 11 2023  18 17  04.1044 19145.3 -14963.5 -38.0103 24299.2
 06 11 2023  18 18  04.0988 19142.9 -14963.5 -38.0139 24297.3
 06 11 2023  18 19  04.0945 19139.9 -14963.9 -38.0188 24295.1
 06 11 2023  18 20  04.0951 19139.9 -14964.3 -38.0196 24295.4
 06 11 2023  18 21  04.0980 19140.1 -14964.4 -38.0194 24295.7
 06 11 2023  18 22  04.0994 19140.0 -14964.5 -38.0198 24295.6
 06 11 2023  18 23  04.1019 19140.2 -14964.6 -38.0196 24295.8
 06 11 2023  18 24  04.1051 19141.0 -14964.5 -38.0184 24296.4
 06 11 2023  18 25  04.1090 19141.7 -14964.4 -38.0171 24296.8
 06 11 2023  18 26  04.1093 19141.4 -14964.3 -38.0173 24296.5
 06 11 2023  18 27  04.1104 19142.1 -14964.2 -38.0161 24297.0
 06 11 2023  18 28  04.1114 19143.4 -14964.1 -38.0140 24298.0
 06 11 2023  18 29  04.1141 19144.4 -14963.9 -38.0121 24298.7
 06 11 2023  18 30  04.1151 19145.2 -14963.7 -38.0108 24299.1
 06 11 2023  18 31  04.1171 19144.9 -14963.5 -38.0109 24298.8
 06 11 2023  18 32  04.1155 19143.3 -14963.5 -38.0131 24297.6
 06 11 2023  18 33  04.1134 19141.8 -14963.7 -38.0157 24296.5
 06 11 2023  18 34  04.1161 19142.9 -14963.9 -38.0145 24297.5
 06 11 2023  18 35  04.1188 19142.6 -14963.9 -38.0149 24297.3
 06 11 2023  18 36  04.1131 19139.3 -14964.2 -38.0202 24294.8
 06 11 2023  18 37  04.1122 19139.7 -14964.7 -38.0206 24295.5
 06 11 2023  18 38  04.1128 19141.5 -14965.0 -38.0186 24297.1
 06 11 2023  18 39  04.1137 19142.0 -14965.2 -38.0181 24297.6
 06 11 2023  18 40  04.1101 19140.0 -14965.5 -38.0215 24296.2
 06 11 2023  18 41  04.1052 19138.3 -14966.0 -38.0251 24295.2
 06 11 2023  18 42  04.1029 19137.9 -14966.7 -38.0269 24295.3
 06 11 2023  18 43  04.0999 19137.7 -14967.3 -38.0283 24295.5
 06 11 2023  18 44  04.0958 19137.3 -14967.9 -38.0302 24295.5
 06 11 2023  18 45  04.0918 19136.7 -14968.6 -38.0321 24295.5
 06 11 2023  18 46  04.0914 19137.5 -14969.2 -38.0322 24296.5
 06 11 2023  18 47  04.0905 19137.9 -14969.6 -38.0324 24297.1
 06 11 2023  18 48  04.0942 19140.4 -14969.9 -38.0292 24299.2
 06 11 2023  18 49  04.0967 19140.8 -14969.9 -38.0287 24299.5
 06 11 2023  18 50  04.0974 19141.2 -14970.0 -38.0283 24299.9
 06 11 2023  18 51  04.0965 19141.2 -14970.1 -38.0284 24300.0
 06 11 2023  18 52  04.0986 19142.2 -14970.2 -38.0271 24300.8
 06 11 2023  18 53  04.1007 19143.1 -14970.1 -38.0257 24301.5
 06 11 2023  18 54  04.0995 19142.2 -14970.1 -38.0269 24300.8
 06 11 2023  18 55  04.0969 19142.1 -14970.3 -38.0275 24300.8
 06 11 2023  18 56  04.0945 19143.0 -14970.5 -38.0266 24301.7
 06 11 2023  18 57  04.0955 19143.9 -14970.6 -38.0256 24302.4
 06 11 2023  18 58  04.0960 19144.3 -14970.8 -38.0253 24302.8
 06 11 2023  18 59  04.1004 19146.1 -14970.7 -38.0225 24304.3
 06 11 2023  19 00  04.0999 19146.0 -14970.7 -38.0226 24304.2
 06 11 2023  19 01  04.0999 19146.4 -14970.9 -38.0223 24304.6
 06 11 2023  19 02  04.0985 19145.9 -14971.0 -38.0234 24304.2
 06 11 2023  19 03  04.0987 19146.2 -14971.3 -38.0235 24304.7
 06 11 2023  19 04  04.1016 19148.7 -14971.4 -38.0201 24306.7
 06 11 2023  19 05  04.1087 19152.7 -14971.1 -38.0137 24309.7
 06 11 2023  19 06  04.1082 19150.6 -14970.7 -38.0159 24307.7
 06 11 2023  19 07  04.1067 19150.0 -14970.9 -38.0171 24307.4
 06 11 2023  19 08  04.1124 19153.2 -14970.9 -38.0125 24310.0
 06 11 2023  19 09  04.1217 19157.5 -14970.5 -38.0056 24313.1
 06 11 2023  19 10  04.1259 19157.4 -14969.9 -38.0045 24312.6
 06 11 2023  19 11  04.1235 19155.1 -14969.7 -38.0076 24310.7
 06 11 2023  19 12  04.1245 19155.5 -14969.9 -38.0074 24311.1
 06 11 2023  19 13  04.1263 19156.8 -14970.0 -38.0055 24312.2
 06 11 2023  19 14  04.1286 19157.3 -14969.9 -38.0048 24312.6
 06 11 2023  19 15  04.1294 19156.2 -14970.0 -38.0065 24311.7
 06 11 2023  19 16  04.1306 19156.0 -14970.2 -38.0071 24311.7
 06 11 2023  19 17  04.1319 19156.1 -14970.3 -38.0072 24311.9
 06 11 2023  19 18  04.1318 19154.7 -14970.4 -38.0094 24310.8
 06 11 2023  19 19  04.1289 19152.1 -14970.7 -38.0137 24308.9
 06 11 2023  19 20  04.1266 19150.7 -14971.2 -38.0167 24308.1
 06 11 2023  19 21  04.1281 19150.4 -14971.6 -38.0179 24308.2
 06 11 2023  19 22  04.1322 19150.8 -14971.8 -38.0177 24308.6
 06 11 2023  19 23  04.1339 19150.4 -14971.9 -38.0183 24308.3
 06 11 2023  19 24  04.1322 19149.0 -14972.1 -38.0207 24307.3
 06 11 2023  19 25  04.1293 19148.2 -14972.4 -38.0226 24306.9
 06 11 2023  19 26  04.1302 19148.4 -14972.8 -38.0231 24307.3
 06 11 2023  19 27  04.1308 19148.8 -14973.1 -38.0230 24307.8
 06 11 2023  19 28  04.1293 19148.0 -14973.3 -38.0246 24307.4
 06 11 2023  19 29  04.1219 19145.0 -14973.9 -38.0298 24305.3
 06 11 2023  19 30  04.1141 19142.6 -14974.8 -38.0351 24304.0
 06 11 2023  19 31  04.1108 19141.8 -14975.7 -38.0379 24303.9
 06 11 2023  19 32  04.1084 19141.2 -14976.5 -38.0402 24303.9
 06 11 2023  19 33  04.1069 19140.9 -14977.2 -38.0420 24304.1
 06 11 2023  19 34  04.1061 19141.3 -14977.7 -38.0425 24304.8
 06 11 2023  19 35  04.1058 19142.3 -14978.2 -38.0419 24305.8
 06 11 2023  19 36  04.1041 19142.3 -14978.5 -38.0426 24306.0
 06 11 2023  19 37  04.1020 19142.2 -14978.9 -38.0435 24306.2
 06 11 2023  19 38  04.1003 19142.1 -14979.4 -38.0443 24306.4
 06 11 2023  19 39  04.0992 19142.4 -14979.8 -38.0446 24306.9
 06 11 2023  19 40  04.0975 19142.2 -14980.1 -38.0455 24307.0
 06 11 2023  19 41  04.0948 19141.3 -14980.5 -38.0476 24306.5
 06 11 2023  19 42  04.0917 19141.1 -14981.0 -38.0488 24306.6
 06 11 2023  19 43  04.0890 19141.7 -14981.4 -38.0488 24307.4
 06 11 2023  19 44  04.0867 19142.4 -14981.8 -38.0484 24308.2
 06 11 2023  19 45  04.0845 19142.6 -14982.2 -38.0487 24308.6
 06 11 2023  19 46  04.0834 19143.2 -14982.5 -38.0486 24309.2
 06 11 2023  19 47  04.0810 19143.5 -14982.8 -38.0486 24309.7
 06 11 2023  19 48  04.0780 19144.5 -14983.2 -38.0478 24310.7
 06 11 2023  19 49  04.0759 19145.0 -14983.4 -38.0476 24311.2
 06 11 2023  19 50  04.0726 19144.8 -14983.8 -38.0486 24311.3
 06 11 2023  19 51  04.0702 19145.0 -14984.2 -38.0490 24311.7
 06 11 2023  19 52  04.0689 19146.0 -14984.5 -38.0482 24312.6
 06 11 2023  19 53  04.0678 19147.1 -14984.7 -38.0470 24313.7
 06 11 2023  19 54  04.0671 19148.3 -14985.0 -38.0457 24314.8
 06 11 2023  19 55  04.0677 19150.0 -14985.1 -38.0435 24316.2
 06 11 2023  19 56  04.0667 19149.6 -14985.2 -38.0442 24315.9
 06 11 2023  19 57  04.0649 19149.2 -14985.4 -38.0452 24315.7
 06 11 2023  19 58  04.0659 19150.1 -14985.6 -38.0444 24316.6
 06 11 2023  19 59  04.0662 19150.5 -14985.7 -38.0438 24317.0
 06 11 2023  20 00  04.0654 19150.6 -14985.8 -38.0439 24317.1
 06 11 2023  20 01  04.0649 19151.3 -14985.9 -38.0430 24317.7
 06 11 2023  20 02  04.0631 19151.0 -14985.9 -38.0436 24317.4
 06 11 2023  20 03  04.0618 19150.8 -14986.1 -38.0442 24317.4
 06 11 2023  20 04  04.0599 19150.4 -14986.3 -38.0451 24317.2
 06 11 2023  20 05  04.0572 19150.1 -14986.5 -38.0459 24317.1
 06 11 2023  20 06  04.0556 19150.1 -14986.7 -38.0464 24317.2
 06 11 2023  20 07  04.0541 19150.1 -14986.9 -38.0466 24317.4
 06 11 2023  20 08  04.0514 19150.7 -14987.1 -38.0462 24317.9
 06 11 2023  20 09  04.0524 19152.7 -14987.2 -38.0435 24319.6
 06 11 2023  20 10  04.0547 19154.9 -14987.1 -38.0401 24321.3
 06 11 2023  20 11  04.0586 19157.2 -14986.9 -38.0364 24322.9
 06 11 2023  20 12  04.0608 19157.9 -14986.6 -38.0348 24323.3
 06 11 2023  20 13  04.0610 19159.3 -14986.3 -38.0323 24324.2
 06 11 2023  20 14  04.0613 19160.4 -14986.1 -38.0303 24325.0
 06 11 2023  20 15  04.0616 19161.5 -14985.9 -38.0283 24325.8
 06 11 2023  20 16  04.0626 19161.9 -14985.8 -38.0274 24326.0
 06 11 2023  20 17  04.0630 19162.2 -14985.6 -38.0268 24326.0
 06 11 2023  20 18  04.0622 19162.2 -14985.5 -38.0265 24326.0
 06 11 2023  20 19  04.0630 19163.0 -14985.4 -38.0252 24326.5
 06 11 2023  20 20  04.0647 19164.0 -14985.3 -38.0235 24327.3
 06 11 2023  20 21  04.0657 19164.3 -14985.1 -38.0228 24327.4
 06 11 2023  20 22  04.0649 19163.6 -14985.0 -38.0235 24326.8
 06 11 2023  20 23  04.0641 19164.0 -14985.0 -38.0229 24327.1
 06 11 2023  20 24  04.0658 19164.9 -14984.9 -38.0216 24327.7
 06 11 2023  20 25  04.0688 19164.9 -14984.8 -38.0213 24327.8
 06 11 2023  20 26  04.0705 19164.8 -14984.7 -38.0213 24327.6
 06 11 2023  20 27  04.0681 19163.4 -14984.7 -38.0233 24326.5
 06 11 2023  20 28  04.0680 19163.1 -14984.9 -38.0241 24326.4
 06 11 2023  20 29  04.0706 19163.4 -14985.0 -38.0239 24326.7
 06 11 2023  20 30  04.0734 19163.5 -14985.0 -38.0237 24326.7
 06 11 2023  20 31  04.0781 19164.3 -14984.9 -38.0223 24327.3
 06 11 2023  20 32  04.0777 19163.6 -14984.7 -38.0231 24326.6
 06 11 2023  20 33  04.0796 19164.0 -14984.7 -38.0224 24327.0
 06 11 2023  20 34  04.0783 19162.3 -14984.7 -38.0249 24325.6
 06 11 2023  20 35  04.0762 19161.0 -14984.9 -38.0271 24324.7
 06 11 2023  20 36  04.0764 19161.2 -14985.1 -38.0272 24324.9
 06 11 2023  20 37  04.0794 19161.4 -14985.1 -38.0270 24325.1
 06 11 2023  20 38  04.0815 19160.7 -14985.1 -38.0281 24324.6
 06 11 2023  20 39  04.0798 19159.9 -14985.2 -38.0294 24324.0
 06 11 2023  20 40  04.0807 19158.9 -14985.3 -38.0308 24323.3
 06 11 2023  20 41  04.0776 19156.4 -14985.4 -38.0349 24321.4
 06 11 2023  20 42  04.0723 19158.8 -14985.7 -38.0319 24323.4
 06 11 2023  20 43  04.0760 19156.9 -14986.2 -38.0355 24322.3
 06 11 2023  20 44  04.0806 19156.9 -14986.2 -38.0355 24322.3
 06 11 2023  20 45  04.0797 19156.3 -14986.2 -38.0364 24321.8
 06 11 2023  20 46  04.0777 19155.5 -14986.3 -38.0377 24321.2
 06 11 2023  20 47  04.0758 19155.1 -14986.4 -38.0386 24320.9
 06 11 2023  20 48  04.0733 19153.7 -14986.5 -38.0409 24319.9
 06 11 2023  20 49  04.0739 19153.5 -14986.8 -38.0415 24319.9
 06 11 2023  20 50  04.0754 19153.3 -14986.9 -38.0420 24319.9
 06 11 2023  20 51  04.0754 19153.5 -14987.0 -38.0419 24320.1
 06 11 2023  20 52  04.0752 19154.2 -14987.1 -38.0412 24320.7
 06 11 2023  20 53  04.0771 19155.3 -14987.2 -38.0396 24321.6
 06 11 2023  20 54  04.0781 19154.6 -14987.2 -38.0407 24321.0
 06 11 2023  20 55  04.0778 19153.7 -14987.3 -38.0423 24320.4
 06 11 2023  20 56  04.0794 19154.8 -14987.4 -38.0410 24321.3
 06 11 2023  20 57  04.0812 19155.6 -14987.4 -38.0396 24322.0
 06 11 2023  20 58  04.0808 19155.2 -14987.3 -38.0401 24321.7
 06 11 2023  20 59  04.0770 19153.6 -14987.4 -38.0426 24320.4
 06 11 2023  21 00  04.0755 19153.6 -14987.7 -38.0430 24320.6
 06 11 2023  21 01  04.0748 19152.3 -14987.9 -38.0453 24319.7
 06 11 2023  21 02  04.0721 19150.3 -14988.1 -38.0487 24318.3
 06 11 2023  21 03  04.0674 19148.0 -14988.5 -38.0528 24316.7
 06 11 2023  21 04  04.0684 19147.5 -14988.9 -38.0541 24316.6
 06 11 2023  21 05  04.0660 19146.5 -14989.1 -38.0561 24315.9
 06 11 2023  21 06  04.0655 19145.7 -14989.4 -38.0578 24315.4
 06 11 2023  21 07  04.0638 19144.9 -14989.7 -38.0594 24315.0
 06 11 2023  21 08  04.0597 19143.7 -14990.0 -38.0617 24314.2
 06 11 2023  21 09  04.0572 19142.4 -14990.3 -38.0642 24313.4
 06 11 2023  21 10  04.0558 19142.7 -14990.7 -38.0645 24313.9
 06 11 2023  21 11  04.0558 19143.4 -14990.9 -38.0639 24314.6
 06 11 2023  21 12  04.0531 19143.3 -14991.0 -38.0642 24314.6
 06 11 2023  21 13  04.0504 19142.3 -14991.2 -38.0661 24313.9
 06 11 2023  21 14  04.0507 19142.5 -14991.5 -38.0662 24314.2
 06 11 2023  21 15  04.0518 19143.8 -14991.6 -38.0647 24315.3
 06 11 2023  21 16  04.0524 19143.8 -14991.7 -38.0647 24315.3
 06 11 2023  21 17  04.0507 19142.0 -14991.7 -38.0674 24314.0
 06 11 2023  21 18  04.0492 19142.1 -14991.9 -38.0677 24314.1
 06 11 2023  21 19  04.0494 19141.8 -14992.0 -38.0683 24314.0
 06 11 2023  21 20  04.0499 19141.3 -14992.1 -38.0690 24313.7
 06 11 2023  21 21  04.0487 19140.9 -14992.2 -38.0699 24313.3
 06 11 2023  21 22  04.0481 19141.4 -14992.3 -38.0693 24313.8
 06 11 2023  21 23  04.0481 19142.0 -14992.2 -38.0683 24314.2
 06 11 2023  21 24  04.0464 19141.5 -14992.1 -38.0688 24313.8
 06 11 2023  21 25  04.0440 19140.9 -14992.2 -38.0700 24313.4
 06 11 2023  21 26  04.0423 19140.8 -14992.3 -38.0702 24313.4
 06 11 2023  21 27  04.0419 19140.7 -14992.3 -38.0704 24313.3
 06 11 2023  21 28  04.0406 19140.2 -14992.4 -38.0713 24312.9
 06 11 2023  21 29  04.0378 19140.2 -14992.5 -38.0714 24313.0
 06 11 2023  21 30  04.0360 19140.5 -14992.6 -38.0712 24313.3
 06 11 2023  21 31  04.0354 19141.4 -14992.6 -38.0700 24314.0
 06 11 2023  21 32  04.0365 19142.1 -14992.6 -38.0689 24314.6
 06 11 2023  21 33  04.0369 19142.7 -14992.6 -38.0681 24315.0
 06 11 2023  21 34  04.0357 19143.1 -14992.6 -38.0674 24315.3
 06 11 2023  21 35  04.0343 19143.8 -14992.6 -38.0663 24315.9
 06 11 2023  21 36  04.0319 19144.4 -14992.6 -38.0656 24316.4
 06 11 2023  21 37  04.0306 19144.8 -14992.7 -38.0652 24316.7
 06 11 2023  21 38  04.0313 19146.1 -14992.7 -38.0633 24317.8
 06 11 2023  21 39  04.0321 19147.3 -14992.7 -38.0614 24318.7
 06 11 2023  21 40  04.0324 19148.5 -14992.5 -38.0595 24319.6
 06 11 2023  21 41  04.0341 19150.2 -14992.5 -38.0569 24320.9
 06 11 2023  21 42  04.0338 19151.7 -14992.3 -38.0544 24322.0
 06 11 2023  21 43  04.0314 19151.9 -14992.3 -38.0540 24322.1
 06 11 2023  21 44  04.0279 19151.6 -14992.4 -38.0547 24321.9
 06 11 2023  21 45  04.0257 19151.9 -14992.6 -38.0546 24322.3
 06 11 2023  21 46  04.0248 19152.9 -14992.7 -38.0534 24323.2
 06 11 2023  21 47  04.0243 19153.7 -14992.8 -38.0524 24323.8
 06 11 2023  21 48  04.0232 19154.0 -14992.9 -38.0522 24324.1
 06 11 2023  21 49  04.0211 19153.6 -14993.0 -38.0529 24323.9
 06 11 2023  21 50  04.0216 19154.2 -14993.2 -38.0524 24324.4
 06 11 2023  21 51  04.0219 19155.0 -14993.1 -38.0512 24325.1
 06 11 2023  21 52  04.0216 19155.3 -14993.2 -38.0508 24325.3
 06 11 2023  21 53  04.0209 19155.1 -14993.2 -38.0512 24325.1
 06 11 2023  21 54  04.0206 19155.1 -14993.2 -38.0512 24325.2
 06 11 2023  21 55  04.0200 19155.3 -14993.3 -38.0510 24325.4
 06 11 2023  21 56  04.0192 19155.5 -14993.3 -38.0508 24325.6
 06 11 2023  21 57  04.0184 19155.8 -14993.4 -38.0504 24325.9
 06 11 2023  21 58  04.0177 19156.2 -14993.5 -38.0500 24326.2
 06 11 2023  21 59  04.0164 19156.6 -14993.6 -38.0497 24326.5
 06 11 2023  22 00  04.0152 19157.0 -14993.6 -38.0492 24326.9
 06 11 2023  22 01  04.0148 19157.0 -14993.7 -38.0492 24327.0
 06 11 2023  22 02  04.0146 19156.6 -14993.7 -38.0500 24326.7
 06 11 2023  22 03  04.0144 19156.3 -14993.8 -38.0506 24326.5
 06 11 2023  22 04  04.0145 19156.0 -14993.8 -38.0511 24326.2
 06 11 2023  22 05  04.0142 19155.5 -14993.9 -38.0519 24325.9
 06 11 2023  22 06  04.0135 19154.9 -14994.0 -38.0529 24325.5
 06 11 2023  22 07  04.0128 19154.2 -14994.1 -38.0541 24325.0
 06 11 2023  22 08  04.0120 19153.3 -14994.2 -38.0555 24324.3
 06 11 2023  22 09  04.0105 19152.3 -14994.3 -38.0573 24323.6
 06 11 2023  22 10  04.0096 19151.7 -14994.4 -38.0583 24323.3
 06 11 2023  22 11  04.0094 19151.7 -14994.6 -38.0586 24323.3
 06 11 2023  22 12  04.0106 19152.6 -14994.6 -38.0575 24324.1
 06 11 2023  22 13  04.0115 19152.8 -14994.6 -38.0570 24324.2
 06 11 2023  22 14  04.0115 19153.0 -14994.6 -38.0568 24324.3
 06 11 2023  22 15  04.0112 19153.2 -14994.6 -38.0565 24324.5
 06 11 2023  22 16  04.0115 19153.5 -14994.6 -38.0561 24324.8
 06 11 2023  22 17  04.0115 19153.4 -14994.6 -38.0561 24324.7
 06 11 2023  22 18  04.0109 19152.7 -14994.6 -38.0572 24324.1
 06 11 2023  22 19  04.0103 19152.2 -14994.6 -38.0580 24323.8
 06 11 2023  22 20  04.0096 19152.1 -14994.7 -38.0583 24323.7
 06 11 2023  22 21  04.0080 19151.4 -14994.7 -38.0594 24323.2
 06 11 2023  22 22  04.0064 19150.7 -14994.9 -38.0607 24322.8
 06 11 2023  22 23  04.0053 19150.3 -14995.1 -38.0616 24322.5
 06 11 2023  22 24  04.0043 19150.3 -14995.2 -38.0619 24322.6
 06 11 2023  22 25  04.0035 19150.6 -14995.4 -38.0618 24323.0
 06 11 2023  22 26  04.0025 19150.1 -14995.5 -38.0626 24322.7
 06 11 2023  22 27  04.0014 19150.5 -14995.6 -38.0624 24323.0
 06 11 2023  22 28  04.0017 19150.9 -14995.7 -38.0619 24323.4
 06 11 2023  22 29  04.0025 19151.7 -14995.8 -38.0609 24324.0
 06 11 2023  22 30  04.0029 19151.9 -14995.7 -38.0605 24324.2
 06 11 2023  22 31  04.0028 19151.5 -14995.7 -38.0610 24323.9
 06 11 2023  22 32  04.0026 19150.6 -14995.7 -38.0623 24323.2
 06 11 2023  22 33  04.0021 19150.8 -14995.8 -38.0622 24323.3
 06 11 2023  22 34  04.0046 19151.2 -14995.7 -38.0615 24323.6
 06 11 2023  22 35  04.0082 19151.7 -14995.6 -38.0606 24324.0
 06 11 2023  22 36  04.0109 19151.8 -14995.4 -38.0601 24323.9
 06 11 2023  22 37  04.0097 19151.1 -14995.3 -38.0608 24323.4
 06 11 2023  22 38  04.0066 19150.1 -14995.4 -38.0623 24322.6
 06 11 2023  22 39  04.0055 19149.4 -14995.5 -38.0637 24322.1
 06 11 2023  22 40  04.0040 19149.2 -14995.6 -38.0642 24322.0
 06 11 2023  22 41  04.0046 19149.6 -14995.7 -38.0638 24322.4
 06 11 2023  22 42  04.0043 19149.4 -14995.7 -38.0640 24322.2
 06 11 2023  22 43  04.0024 19149.7 -14995.7 -38.0636 24322.5
 06 11 2023  22 44  04.0043 19152.0 -14995.7 -38.0604 24324.2
 06 11 2023  22 45  04.0066 19153.7 -14995.6 -38.0576 24325.5
 06 11 2023  22 46  04.0046 19151.7 -14995.5 -38.0604 24323.9
 06 11 2023  22 47  04.0019 19148.5 -14995.7 -38.0653 24321.5
 06 11 2023  22 48  04.0002 19146.9 -14995.9 -38.0681 24320.4
 06 11 2023  22 49  03.9991 19146.7 -14996.1 -38.0687 24320.4
 06 11 2023  22 50  03.9993 19147.3 -14996.2 -38.0680 24320.9
 06 11 2023  22 51  04.0016 19148.0 -14996.2 -38.0670 24321.4
 06 11 2023  22 52  04.0023 19148.4 -14996.2 -38.0664 24321.7
 06 11 2023  22 53  04.0022 19147.8 -14996.1 -38.0671 24321.2
 06 11 2023  22 54  04.0024 19147.4 -14996.1 -38.0677 24320.9
 06 11 2023  22 55  04.0026 19147.0 -14996.1 -38.0683 24320.6
 06 11 2023  22 56  04.0018 19146.3 -14996.2 -38.0695 24320.0
 06 11 2023  22 57  04.0003 19144.9 -14996.3 -38.0716 24319.0
 06 11 2023  22 58  03.9993 19145.0 -14996.3 -38.0716 24319.1
 06 11 2023  22 59  03.9992 19145.3 -14996.3 -38.0712 24319.4
 06 11 2023  23 00  03.9982 19144.9 -14996.4 -38.0718 24319.1
 06 11 2023  23 01  03.9974 19144.3 -14996.4 -38.0727 24318.6
 06 11 2023  23 02  03.9963 19143.5 -14996.5 -38.0740 24318.1
 06 11 2023  23 03  03.9961 19143.6 -14996.6 -38.0741 24318.1
 06 11 2023  23 04  03.9964 19144.0 -14996.6 -38.0736 24318.5
 06 11 2023  23 05  03.9969 19144.5 -14996.6 -38.0729 24318.9
 06 11 2023  23 06  03.9974 19144.9 -14996.6 -38.0722 24319.2
 06 11 2023  23 07  03.9977 19145.0 -14996.5 -38.0720 24319.3
 06 11 2023  23 08  03.9975 19144.8 -14996.5 -38.0723 24319.1
 06 11 2023  23 09  03.9972 19144.5 -14996.6 -38.0728 24318.9
 06 11 2023  23 10  03.9966 19144.0 -14996.7 -38.0736 24318.6
 06 11 2023  23 11  03.9963 19143.8 -14996.8 -38.0742 24318.5
 06 11 2023  23 12  03.9957 19143.4 -14996.8 -38.0750 24318.2
 06 11 2023  23 13  03.9941 19142.1 -14996.9 -38.0770 24317.2
 06 11 2023  23 14  03.9929 19141.1 -14997.1 -38.0787 24316.5
 06 11 2023  23 15  03.9921 19140.7 -14997.3 -38.0796 24316.4
 06 11 2023  23 16  03.9913 19140.1 -14997.5 -38.0809 24316.0
 06 11 2023  23 17  03.9902 19139.3 -14997.6 -38.0823 24315.4
 06 11 2023  23 18  03.9890 19138.4 -14997.8 -38.0839 24314.9
 06 11 2023  23 19  03.9888 19138.2 -14998.0 -38.0847 24314.8
 06 11 2023  23 20  03.9884 19138.2 -14998.2 -38.0850 24314.9
 06 11 2023  23 21  03.9880 19137.9 -14998.3 -38.0856 24314.8
 06 11 2023  23 22  03.9880 19138.1 -14998.4 -38.0855 24315.0
 06 11 2023  23 23  03.9872 19137.6 -14998.6 -38.0865 24314.7
 06 11 2023  23 24  03.9861 19137.1 -14998.7 -38.0875 24314.4
 06 11 2023  23 25  03.9860 19137.5 -14998.9 -38.0872 24314.8
 06 11 2023  23 26  03.9851 19137.6 -14999.0 -38.0873 24314.9
 06 11 2023  23 27  03.9832 19136.3 -14999.1 -38.0895 24314.0
 06 11 2023  23 28  03.9816 19134.8 -14999.4 -38.0921 24313.0
 06 11 2023  23 29  03.9806 19133.8 -14999.6 -38.0939 24312.4
 06 11 2023  23 30  03.9801 19133.2 -14999.8 -38.0951 24312.0
 06 11 2023  23 31  03.9801 19133.2 -15000.0 -38.0955 24312.1
 06 11 2023  23 32  03.9800 19133.2 -15000.1 -38.0956 24312.2
 06 11 2023  23 33  03.9794 19133.0 -15000.2 -38.0962 24312.1
 06 11 2023  23 34  03.9790 19132.4 -15000.3 -38.0973 24311.7
 06 11 2023  23 35  03.9794 19132.0 -15000.4 -38.0982 24311.4
 06 11 2023  23 36  03.9799 19132.0 -15000.5 -38.0983 24311.5
 06 11 2023  23 37  03.9796 19132.0 -15000.6 -38.0984 24311.5
 06 11 2023  23 38  03.9791 19132.1 -15000.6 -38.0983 24311.7
 06 11 2023  23 39  03.9782 19132.1 -15000.7 -38.0985 24311.7
 06 11 2023  23 40  03.9776 19132.2 -15000.8 -38.0985 24311.8
 06 11 2023  23 41  03.9767 19131.9 -15000.8 -38.0991 24311.6
 06 11 2023  23 42  03.9753 19130.9 -15000.9 -38.1006 24310.9
 06 11 2023  23 43  03.9747 19129.9 -15001.0 -38.1023 24310.1
 06 11 2023  23 44  03.9746 19129.2 -15001.1 -38.1035 24309.7
 06 11 2023  23 45  03.9747 19128.4 -15001.2 -38.1047 24309.0
 06 11 2023  23 46  03.9741 19127.3 -15001.2 -38.1065 24308.2
 06 11 2023  23 47  03.9746 19127.0 -15001.3 -38.1070 24308.1
 06 11 2023  23 48  03.9764 19127.9 -15001.3 -38.1057 24308.8
 06 11 2023  23 49  03.9774 19128.7 -15001.3 -38.1045 24309.3
 06 11 2023  23 50  03.9775 19128.5 -15001.2 -38.1047 24309.2
 06 11 2023  23 51  03.9778 19127.5 -15001.2 -38.1060 24308.4
 06 11 2023  23 52  03.9777 19126.8 -15001.2 -38.1070 24307.8
 06 11 2023  23 53  03.9776 19127.2 -15001.1 -38.1064 24308.1
 06 11 2023  23 54  03.9778 19127.0 -15001.1 -38.1066 24307.9
 06 11 2023  23 55  03.9762 19125.5 -15001.1 -38.1087 24306.7
 06 11 2023  23 56  03.9746 19124.0 -15001.1 -38.1111 24305.6
 06 11 2023  23 57  03.9733 19122.1 -15001.2 -38.1140 24304.1
 06 11 2023  23 58  03.9727 19121.0 -15001.4 -38.1158 24303.4
 06 11 2023  23 59  03.9725 19121.4 -15001.4 -38.1154 24303.7
